File: Edgar/20240503/20240503/electrodeposition_pulsed_potential_20240503_A/OCP_3
Time (s)	WE(1).Potential (V)
5480.15	0.574646
5481.15	0.567627
5482.15	0.561218
5483.15	0.555115
5484.15	0.549622
5485.15	0.544434
5486.15	0.539551
5487.15	0.534973
5488.15	0.531006
5489.15	0.527039
5490.15	0.523376
5491.15	0.52002
5492.15	0.516968
5493.15	0.513916
5494.15	0.511169
5495.15	0.508728
5496.15	0.506287
5497.15	0.50415
5498.15	0.502014
5499.15	0.500183
5500.15	0.498322
5501.15	0.496735
5502.15	0.495239
5503.15	0.493835
5504.15	0.492554
5505.15	0.491364
5506.15	0.490295
5507.15	0.489288
5508.15	0.488373
5509.15	0.487518
5510.15	0.486725
5511.15	0.485962
5512.15	0.485352
5513.15	0.484741
5514.15	0.484192
5515.15	0.483673
5516.15	0.483185
5517.15	0.482758
5518.15	0.482361
5519.15	0.482025
5520.15	0.48172
5521.15	0.481415
5522.15	0.481171
5523.15	0.480927
5524.15	0.480682
5525.15	0.480499
5526.15	0.480286
5527.15	0.480103
5528.15	0.47995
5529.15	0.479828
5530.15	0.479706
5531.15	0.479584
5532.15	0.479462
5533.15	0.47937
5534.15	0.479309
5535.15	0.479248
5536.15	0.479156
5537.15	0.479126
5538.15	0.479095
5539.15	0.479034
5540.15	0.479004
5541.15	0.478973
5542.15	0.478973
5543.15	0.478943
5544.15	0.478912
5545.15	0.478882
5546.15	0.478882
5547.15	0.478851
5548.15	0.478851
5549.15	0.478851
5550.15	0.478851
5551.15	0.478851
5552.15	0.478851
5553.15	0.478882
5554.15	0.478912
5555.15	0.478912
5556.15	0.478912
5557.15	0.478943
5558.15	0.478973
5559.15	0.479004
5560.15	0.479004
5561.15	0.479065
5562.15	0.479095
5563.15	0.479126
5564.15	0.479156
5565.15	0.479187
5566.15	0.479218
5567.15	0.479248
5568.15	0.479279
5569.15	0.479309
5570.15	0.47937
5571.15	0.479431
5572.15	0.479462
5573.15	0.479492
5574.15	0.479553
5575.15	0.479614
5576.15	0.479645
5577.15	0.479706
5578.15	0.479767
5579.15	0.479797
5580.15	0.479828
5581.15	0.479889
5582.15	0.479919
5583.15	0.47998
5584.15	0.480042
5585.15	0.480103
5586.15	0.480133
5587.15	0.480194
5588.15	0.480194
5589.15	0.480255
5590.15	0.480286
5591.15	0.480286
5592.15	0.480316
5593.15	0.480377
5594.15	0.480408
5595.15	0.480438
5596.15	0.480469
5597.15	0.48053
5598.15	0.48056
5599.15	0.48056
5600.15	0.480621
5601.15	0.480652
5602.15	0.480652
5603.15	0.480682
5604.15	0.480682
5605.15	0.480713
5606.15	0.480682
5607.15	0.480713
5608.15	0.480713
5609.15	0.480743
5610.15	0.480774
5611.15	0.480774
5612.15	0.480804
5613.15	0.480865
5614.15	0.480896
5615.15	0.480957
5616.15	0.480988
5617.15	0.481018
5618.15	0.481049
5619.15	0.481079
5620.15	0.48114
5621.15	0.481171
5622.15	0.481232
5623.15	0.481262
5624.15	0.481293
5625.15	0.481323
5626.15	0.481323
5627.15	0.481354
5628.15	0.481415
5629.15	0.481445
5630.15	0.481506
5631.15	0.481537
5632.15	0.481567
5633.15	0.481567
5634.15	0.481598
5635.15	0.481628
5636.15	0.481628
5637.15	0.481598
5638.15	0.481628
5639.15	0.481659
5640.15	0.481659
5641.15	0.481689
5642.15	0.48172
5643.15	0.48175
5644.15	0.481781
5645.15	0.481781
5646.15	0.481812
5647.15	0.481842
5648.15	0.481812
5649.15	0.481842
5650.15	0.481812
5651.15	0.481812
5652.15	0.481812
5653.15	0.481842
5654.15	0.481842
5655.15	0.481873
5656.15	0.481903
5657.15	0.481903
5658.15	0.481903
5659.15	0.481903