File: Edgar/20240503/20240503/electrodeposition_pulsed_potential_20240503_A/OCP_1
Time (s)	WE(1).Potential (V)
1.96074	0.567322
2.96074	0.567627
3.96074	0.567627
4.96074	0.567627
5.96074	0.567627
6.96074	0.567932
7.96074	0.567932
8.96074	0.567932
9.96074	0.568237
10.9607	0.568237
11.9607	0.568237
12.9607	0.568542
13.9607	0.568542
14.9607	0.568542
15.9607	0.568542
16.9607	0.568848
17.9607	0.568848
18.9607	0.568848
19.9607	0.569153
20.9607	0.569153
21.9607	0.569153
22.9607	0.569458
23.9607	0.569458
24.9607	0.569458
25.9607	0.569458
26.9607	0.569763
27.9607	0.569763
28.9607	0.569763
29.9607	0.570068
30.9607	0.570068
31.9607	0.570068
32.9607	0.570068
33.9607	0.570374
34.9607	0.570374
35.9607	0.570374
36.9607	0.570679
37.9607	0.570679
38.9607	0.570679
39.9607	0.570679
40.9607	0.570984
41.9607	0.570984
42.9607	0.570984
43.9607	0.570984
44.9607	0.571289
45.9607	0.571289
46.9607	0.571289
47.9607	0.571289
48.9607	0.571594
49.9607	0.571594
50.9607	0.571594
51.9607	0.571899
52.9607	0.571899
53.9607	0.571899
54.9607	0.571899
55.9607	0.572205
56.9607	0.572205
57.9607	0.572205
58.9607	0.57251
59.9607	0.57251
60.9607	0.57251
61.9607	0.57251
62.9607	0.572815
63.9607	0.572815
64.9607	0.572815
65.9607	0.572815
66.9607	0.57312
67.9607	0.57312
68.9607	0.57312
69.9607	0.57312
70.9607	0.573425
71.9607	0.573425
72.9607	0.573425
73.9607	0.57373
74.9607	0.57373
75.9607	0.57373
76.9607	0.57373
77.9607	0.574036
78.9607	0.574036
79.9607	0.574036
80.9607	0.574036
81.9607	0.574341
82.9607	0.574341
83.9607	0.574341
84.9607	0.574341
85.9607	0.574646
86.9607	0.574646
87.9607	0.574646
88.9607	0.574646
89.9607	0.574951
90.9607	0.574951
91.9607	0.574951
92.9607	0.575256
93.9607	0.575256
94.9607	0.575256
95.9607	0.575256
96.9607	0.575562
97.9607	0.575562
98.9607	0.575562
99.9607	0.575562
100.961	0.575867
101.961	0.575867
102.961	0.575867
103.961	0.575867
104.961	0.576172
105.961	0.576172
106.961	0.576172
107.961	0.576477
108.961	0.576477
109.961	0.576477
110.961	0.576477
111.961	0.576782
112.961	0.576782
113.961	0.576782
114.961	0.576782
115.961	0.577087
116.961	0.577087
117.961	0.577087
118.961	0.577087
119.961	0.577393
120.961	0.577393
121.961	0.577393
122.961	0.577393
123.961	0.577698
124.961	0.577698
125.961	0.577698
126.961	0.577698
127.961	0.578003
128.961	0.578003
129.961	0.578003
130.961	0.578003
131.961	0.578308
132.961	0.578308
133.961	0.578308
134.961	0.578308
135.961	0.578613
136.961	0.578613
137.961	0.578613
138.961	0.578613
139.961	0.578918
140.961	0.578918
141.961	0.578918
142.961	0.578918
143.961	0.579224
144.961	0.579224
145.961	0.579224
146.961	0.579224
147.961	0.579224
148.961	0.579529
149.961	0.579529
150.961	0.579529
151.961	0.579529
152.961	0.579834
153.961	0.579834
154.961	0.579834
155.961	0.579834
156.961	0.580139
157.961	0.580139
158.961	0.580139
159.961	0.580139
160.961	0.580444
161.961	0.580444
162.961	0.580444
163.961	0.580444
164.961	0.580444
165.961	0.58075
166.961	0.58075
167.961	0.58075
168.961	0.58075
169.961	0.581055
170.961	0.581055
171.961	0.581055
172.961	0.581055
173.961	0.58136
174.961	0.58136
175.961	0.58136
176.961	0.58136
177.961	0.581665
178.961	0.581665
179.961	0.581665
180.961	0.581665