File: Edgar/20240503/20240503/electrodeposition_pulsed_potential_20240503_A/pulses_0_to_1000.txt
Time (s)	WE(1).Potential (V)	WE(1).Current (A)
181.69	-0.698334	-0.00332825
186.05	0.582275	-8.63647e-06
190.37	0.582306	-9.49097e-06
194.71	-0.698364	-0.00275879
199.07	0.582214	-6.16455e-06
203.39	0.582275	-9.33838e-06
207.73	-0.698395	-0.00272583
212.09	0.582336	-4.02832e-06
216.41	0.582336	-7.72095e-06
220.75	-0.698334	-0.00271545
225.11	0.582275	-4.69971e-06
229.43	0.582336	-6.2561e-06
233.79	0.0013092	0.000822754
238.13	0.582306	-5.27954e-06
242.45	0.582275	-7.90405e-06
246.81	0.00120544	0.000176147
251.15	0.582214	-4.88281e-06
255.47	0.582336	-7.08008e-06
259.83	0.00121155	7.65686e-05
264.17	0.582306	-4.5166e-06
268.49	0.582275	-7.75146e-06
272.85	0.00121765	3.77197e-05
277.19	0.582275	-5.49316e-06
281.51	0.582275	-7.53784e-06
285.89	0.582336	7.35779e-05
290.21	0.582275	-6.86646e-06
294.53	0.582306	-8.02612e-06
298.91	0.582306	3.27148e-05
303.23	0.582245	-6.37817e-06
307.55	0.582306	-8.30078e-06
311.93	0.582275	1.9165e-05
316.25	0.582306	-5.49316e-06
320.57	0.582306	-8.14819e-06
324.95	0.582275	1.06812e-05
329.27	0.582245	-6.86646e-06
333.59	0.582336	-8.14819e-06
337.97	0.582245	7.47681e-06
342.29	0.582214	-6.98853e-06
346.61	0.582336	-8.72803e-06
350.99	0.582245	4.24194e-06
355.31	0.582245	-7.20215e-06
359.63	0.582306	-9.21631e-06
364.01	0.582245	2.19727e-06
368.33	0.582336	-6.71387e-06
372.65	0.582275	-8.88062e-06
377.03	0.582245	4.27246e-07
381.35	0.582336	-7.59888e-06
385.67	0.582184	-8.3313e-06
390.05	0.582245	-9.46045e-07
394.37	0.582275	-8.23975e-06
398.69	0.582245	-8.94165e-06
403.07	0.582275	-1.37329e-06
407.39	0.582214	-7.8125e-06
411.71	0.582275	-9.70459e-06
416.09	0.582306	-2.62451e-06
420.41	0.582306	-7.08008e-06
424.73	0.582275	-8.08716e-06
429.11	0.582306	-3.9978e-06
433.43	0.582336	-7.23267e-06
437.75	0.582275	-8.66699e-06
442.13	0.582184	-4.36401e-06
446.45	0.582275	-8.78906e-06
450.79	-0.698059	-0.00865784
455.15	0.582245	-4.45557e-06
459.47	0.582214	-8.8501e-06
463.81	-0.698212	-0.00561646
468.17	0.582275	-4.3335e-06
472.49	0.582214	-7.69043e-06
476.83	-0.698212	-0.00445038
481.19	0.582184	-4.85229e-06
485.51	0.582245	-6.92749e-06
489.85	-0.698334	-0.00388489
494.21	0.582245	-5.34058e-06
498.53	0.582275	-8.39233e-06
502.89	0.000967407	0.00782471
507.23	0.582245	-5.70679e-06
511.55	0.582306	-8.8501e-06
515.91	0.00122986	0.00299072
520.25	0.582306	-6.50024e-06
524.57	0.582214	-8.30078e-06
528.93	0.00125427	0.00085907
533.27	0.582245	-6.22559e-06
537.59	0.582275	-8.14819e-06
541.95	0.00119019	0.000237183
546.29	0.582214	-6.83594e-06
550.61	0.582336	-8.60596e-06
554.99	0.582245	0.000115143
559.31	0.582306	-6.92749e-06
563.63	0.582275	-9.0332e-06
568.01	0.582275	4.71191e-05
572.33	0.582214	-5.88989e-06
576.65	0.582275	-8.57544e-06
581.03	0.582275	2.74963e-05
585.35	0.582275	-7.23267e-06
589.67	0.582245	-8.14819e-06
594.05	0.582245	1.75781e-05
598.37	0.582275	-7.93457e-06
602.69	0.582245	-8.17871e-06
607.07	0.582336	1.24512e-05
611.39	0.582245	-6.68335e-06
615.71	0.582214	-8.39233e-06
620.09	0.582306	7.99561e-06
624.41	0.582336	-6.13403e-06
628.73	0.582275	-8.45337e-06
633.11	0.582214	5.00488e-06
637.43	0.582275	-7.04956e-06
641.75	0.582275	-7.53784e-06
646.13	0.582245	4.39453e-06
650.45	0.582245	-7.84302e-06
654.77	0.582245	-8.78906e-06
659.15	0.582184	1.28174e-06
663.47	0.582275	-7.53784e-06
667.79	0.582275	-8.08716e-06
672.17	0.582245	1.34277e-06
676.49	0.582245	-7.2937e-06
680.81	0.582275	-9.46045e-06
685.19	0.582245	3.05176e-07
689.51	0.582306	-7.20215e-06
693.83	0.582245	-7.41577e-06
698.21	0.582245	-1.83105e-07
702.53	0.582245	-7.53784e-06
706.85	0.582245	-8.81958e-06
711.23	0.582275	-6.71387e-07
715.55	0.582214	-8.05664e-06
719.89	-0.697968	-0.0120789
724.25	0.582245	-1.37329e-06
728.57	0.582275	-7.2937e-06
732.91	-0.698151	-0.00804443
737.27	0.582245	-3.11279e-06
741.59	0.582306	-6.43921e-06
745.93	-0.698151	-0.00619598
750.29	0.582214	-3.78418e-06
754.61	0.582184	-7.93457e-06
758.95	-0.698151	-0.00519775
763.31	0.582214	-3.8147e-06
767.63	0.582245	-7.65991e-06
771.99	0.000961304	0.00957642
776.33	0.582245	-3.84521e-06
780.651	0.582214	-8.08716e-06
785.011	0.00115356	0.00550812
789.351	0.582245	-4.24194e-06
793.671	0.582245	-8.39233e-06
798.031	0.00120544	0.00274811
802.371	0.582275	-3.75366e-06
806.691	0.582275	-7.17163e-06
811.051	0.00124817	0.00121094
815.391	0.582275	-5.0354e-06
819.711	0.582245	-6.83594e-06
824.091	0.582336	0.00021701
828.411	0.582245	-4.66919e-06
832.731	0.582275	-7.87354e-06
837.111	0.582306	8.13599e-05
841.431	0.582214	-4.36401e-06
845.751	0.582275	-9.18579e-06
850.131	0.582245	4.73328e-05
854.451	0.582214	-4.63867e-06
858.771	0.582245	-7.32422e-06
863.151	0.582245	3.20435e-05
867.471	0.582275	-5.21851e-06
871.791	0.582275	-7.41577e-06
876.171	0.582214	2.2644e-05
880.491	0.582336	-5.00488e-06
884.811	0.582245	-8.02612e-06
889.191	0.582184	1.68457e-05
893.511	0.582306	-6.98853e-06
897.831	0.582275	-8.05664e-06
902.211	0.582214	1.43433e-05
906.531	0.582336	-5.61523e-06
910.851	0.582214	-9.0332e-06
915.231	0.582245	1.02234e-05
919.551	0.582306	-5.64575e-06
923.871	0.582275	-8.20923e-06
928.251	0.582153	7.72095e-06
932.571	0.582245	-5.40161e-06
936.891	0.582214	-7.20215e-06
941.271	0.582245	5.95093e-06
945.591	0.582214	-7.50732e-06
949.911	0.582275	-8.08716e-06
954.291	0.582245	3.66211e-06
958.611	0.582245	-6.62231e-06
962.931	0.582275	-7.38525e-06
967.311	0.582306	3.50952e-06
971.631	0.582245	-6.04248e-06
975.951	0.582275	-7.90405e-06
980.331	0.582214	2.71606e-06
984.651	0.582275	-6.10352e-06
988.991	-0.697784	-0.0142792
993.351	0.582245	7.62939e-07
997.671	0.582245	-5.95093e-06
1002.01	-0.697998	-0.0101349
1006.37	0.582245	6.10352e-07
1010.69	0.582306	-7.1106e-06
1015.03	-0.69812	-0.0078186
1019.39	0.582245	-5.79834e-07
1023.71	0.582245	-6.04248e-06
1028.05	-0.69812	-0.00649323
1032.41	0.582245	6.10352e-08
1036.73	0.582214	-6.53076e-06
1041.09	0.000924683	0.0101624
1045.43	0.582245	-2.01416e-06
1049.75	0.582306	-6.53076e-06
1054.11	0.00110474	0.00658997
1058.45	0.582184	-1.70898e-06
1062.77	0.582245	-5.95093e-06
1067.13	0.00121155	0.00417419
1071.47	0.582245	-1.28174e-06
1075.79	0.582306	-7.59888e-06
1080.15	0.00123291	0.0023468
1084.49	0.582214	-2.65503e-06
1088.81	0.582245	-7.44629e-06
1093.19	0.582336	0.000483307
1097.51	0.582214	-2.59399e-06
1101.83	0.582245	-5.79834e-06
1106.21	0.582245	0.000128754
1110.53	0.582214	-1.86157e-06
1114.85	0.582245	-6.71387e-06
1119.23	0.582214	7.13501e-05
1123.55	0.582214	-3.26538e-06
1127.87	0.582306	-6.89697e-06
1132.25	0.582184	4.77905e-05
1136.57	0.582214	-4.36401e-06
1140.89	0.582245	-7.38525e-06
1145.27	0.582275	3.6499e-05
1149.59	0.582275	-3.57056e-06
1153.91	0.582306	-7.50732e-06
1158.29	0.582275	2.75269e-05
1162.61	0.582214	-3.08228e-06
1166.93	0.582245	-8.27026e-06
1171.31	0.582275	2.01721e-05
1175.63	0.582184	-3.14331e-06
1179.95	0.582275	-6.83594e-06
1184.33	0.582275	1.72119e-05
1188.65	0.582275	-4.18091e-06
1192.97	0.582275	-6.31714e-06
1197.35	0.582306	1.3092e-05
1201.67	0.582275	-3.35693e-06
1205.99	0.582306	-6.04248e-06
1210.37	0.582275	1.19019e-05
1214.69	0.582214	-3.69263e-06
1219.01	0.582214	-5.95093e-06
1223.39	0.582275	9.58252e-06
1227.71	0.582245	-3.84521e-06
1232.03	0.582214	-6.71387e-06
1236.41	0.582275	7.1106e-06
1240.73	0.582275	-4.66919e-06
1245.05	0.582184	-6.62231e-06
1249.43	0.582214	5.64575e-06
1253.75	0.582275	-4.76074e-06
1258.09	-0.697571	-0.0158203
1262.45	0.582184	4.05884e-06
1266.77	0.582275	-4.76074e-06
1271.11	-0.697815	-0.0118164
1275.47	0.582214	4.05884e-06
1279.79	0.582245	-5.61523e-06
1284.13	-0.698029	-0.00926208
1288.49	0.582214	3.08228e-06
1292.81	0.582275	-6.10352e-06
1297.15	-0.698029	-0.00768738
1301.51	0.582245	1.70898e-06
1305.83	0.582245	-5.58472e-06
1310.19	0.000869751	0.0102448
1314.53	0.582245	2.2583e-06
1318.85	0.582245	-4.79126e-06
1323.21	0.00112305	0.00708893
1327.55	0.582275	-2.13623e-07
1331.87	0.582184	-5.27954e-06
1336.23	0.00110474	0.0049408
1340.57	0.582245	-1.34277e-06
1344.89	0.582275	-6.10352e-06
1349.25	0.00120544	0.00320496
1353.59	0.582245	-5.49316e-07
1357.91	0.582275	-6.19507e-06
1362.29	0.58252	0.00306732
1366.61	0.582245	1.52588e-07
1370.93	0.582245	-7.41577e-06
1375.31	0.582306	0.000202606
1379.63	0.582275	-7.93457e-07
1383.95	0.582245	-6.37817e-06
1388.33	0.582214	0.000102631
1392.65	0.582275	-1.70898e-06
1396.97	0.582306	-5.06592e-06
1401.35	0.582245	6.63757e-05
1405.67	0.582397	-1.64795e-06
1409.99	0.582245	-5.61523e-06
1414.37	0.582214	4.74243e-05
1418.69	0.582214	-3.54004e-06
1423.01	0.582275	-6.2561e-06
1427.39	0.582245	3.66211e-05
1431.71	0.582214	-2.83813e-06
1436.03	0.582214	-5.92041e-06
1440.41	0.582245	2.90833e-05
1444.73	0.582245	-1.86157e-06
1449.05	0.582245	-7.93457e-06
1453.43	0.582214	2.27966e-05
1457.75	0.582214	-2.56348e-06
1462.07	0.582367	-4.94385e-06
1466.45	0.582245	1.93481e-05
1470.77	0.582245	-2.22778e-06
1475.09	0.582214	-6.92749e-06
1479.47	0.582214	1.55945e-05
1481.65	0.582245	-6.53076e-06