File: Edgar/20240503/20240503/electrodeposition_pulsed_potential_20240503_A/pulses_3000_to_4000.txt
Time (s)	WE(1).Potential (V)	WE(1).Current (A)
4154.86	-0.697021	-0.0235718
4159.22	0.582275	2.48108e-05
4163.54	0.582306	1.70898e-06
4167.88	-0.697235	-0.0204712
4172.24	0.582245	2.22778e-05
4176.56	0.582275	1.86157e-06
4180.9	-0.697388	-0.0181274
4185.26	0.582245	1.96533e-05
4189.58	0.582245	1.58691e-06
4193.92	-0.697479	-0.0163025
4198.28	0.582275	1.74561e-05
4202.6	0.582214	6.40869e-07
4206.96	0.00102234	0.00604919
4211.3	0.582275	1.60828e-05
4215.62	0.582275	4.88281e-07
4219.98	0.00110779	0.00499268
4224.32	0.582245	1.48315e-05
4228.64	0.582275	-4.57764e-07
4233	0.00118408	0.00415222
4237.34	0.582275	1.26343e-05
4241.66	0.582245	-1.37329e-06
4246.02	0.00118103	0.0034491
4250.36	0.582306	1.17493e-05
4254.68	0.582245	-3.66211e-07
4259.06	0.58136	0.0177063
4263.38	0.582245	1.10474e-05
4267.7	0.582214	-1.83105e-06
4272.08	0.581543	0.0147217
4276.4	0.582245	9.67407e-06
4280.72	0.582275	-9.76562e-07
4285.1	0.581726	0.0117462
4289.42	0.582306	8.8501e-06
4293.74	0.582245	-2.56348e-06
4298.12	0.582184	0.00650787
4302.44	0.582306	8.11768e-06
4306.76	0.582275	-1.28174e-06
4311.14	0.582214	0.00129242
4315.46	0.582245	7.41577e-06
4319.78	0.582245	-1.37329e-06
4324.16	0.582153	0.000559998
4328.48	0.582275	6.34766e-06
4332.8	0.582245	-9.15527e-07
4337.18	0.582184	0.000283875
4341.5	0.582245	5.95093e-06
4345.82	0.582275	-1.52588e-06
4350.2	0.582184	0.000157196
4354.52	0.582275	4.54712e-06
4358.84	0.582275	-1.0376e-06
4363.22	0.582214	9.61609e-05
4367.54	0.582275	4.57764e-06
4371.86	0.582245	-2.56348e-06
4376.24	0.582275	6.45447e-05
4380.56	0.582245	4.82178e-06
4384.88	0.582245	-1.0376e-06
4389.26	0.582275	4.80042e-05
4393.58	0.582245	2.53296e-06
4397.9	0.582275	-1.95313e-06
4402.28	0.582275	3.79028e-05
4406.6	0.582245	1.46484e-06
4410.92	0.582245	-2.71606e-06
4415.3	0.582184	3.33252e-05
4419.62	0.582306	2.56348e-06
4423.96	-0.69693	-0.0238434
4428.32	0.582245	2.78931e-05
4432.64	0.582275	1.37329e-06
4436.98	-0.697235	-0.0207977
4441.34	0.582306	2.51465e-05
4445.66	0.582214	1.61743e-06
4450	-0.697357	-0.0185059
4454.36	0.582275	2.18506e-05
4458.68	0.582245	1.19019e-06
4463.02	-0.697479	-0.0166992
4467.38	0.582245	1.99585e-05
4471.7	0.582245	1.00708e-06
4476.06	0.00105896	0.00570221
4480.4	0.582306	1.72424e-05
4484.72	0.582214	1.58691e-06
4489.08	0.00110779	0.00470123
4493.42	0.582245	1.52588e-05
4497.74	0.582306	9.15527e-08
4502.1	0.00116272	0.00391846
4506.44	0.582214	1.40991e-05
4510.76	0.582275	8.54492e-07
4515.12	0.0012146	0.00326324
4519.46	0.582214	1.31531e-05
4523.78	0.582245	5.79834e-07
4528.16	0.581299	0.0177399
4532.48	0.582275	1.06812e-05
4536.8	0.582245	3.05176e-08
4541.18	0.581451	0.0149017
4545.5	0.582275	1.02234e-05
4549.82	0.582245	-5.49316e-07
4554.2	0.581696	0.0121277
4558.52	0.582245	8.8501e-06
4562.84	0.582275	-4.57764e-07
4567.22	0.58197	0.00809937
4571.54	0.582214	7.84302e-06
4575.86	0.582275	-8.54492e-07
4580.24	0.582184	0.00173584
4584.56	0.582214	6.40869e-06
4588.88	0.582245	-3.66211e-07
4593.26	0.582214	0.000764771
4597.58	0.582214	6.56128e-06
4601.9	0.582275	-2.59399e-06
4606.28	0.582275	0.000401093
4610.6	0.582275	6.34766e-06
4614.92	0.582275	-2.0752e-06
4619.3	0.582306	0.00022702
4623.62	0.582214	4.76074e-06
4627.94	0.582245	-2.19727e-06
4632.32	0.582275	0.000137238
4636.64	0.582214	4.30298e-06
4640.96	0.582245	-2.56348e-06
4645.34	0.582214	8.87146e-05
4649.66	0.582275	6.16455e-06
4653.98	0.582245	-3.23486e-06
4658.36	0.582245	6.073e-05
4662.68	0.582245	4.18091e-06
4667	0.582275	-2.92969e-06
4671.38	0.582275	4.55322e-05
4675.7	0.582184	3.57056e-06
4680.02	0.582275	-2.38037e-06
4684.4	0.582275	3.5675e-05
4688.72	0.582275	2.56348e-06
4693.06	-0.69696	-0.0239655
4697.42	0.582245	2.99683e-05
4701.74	0.582306	2.96021e-06
4706.08	-0.697174	-0.0210297
4710.44	0.582184	2.58484e-05
4714.76	0.582245	1.5564e-06
4719.1	-0.697327	-0.0188049
4723.46	0.582275	2.23999e-05
4727.78	0.582306	1.86157e-06
4732.12	-0.697449	-0.0170258
4736.48	0.582245	2.01721e-05
4740.8	0.582275	1.64795e-06
4745.16	0.00109558	0.00538544
4749.5	0.582245	1.6449e-05
4753.82	0.582245	1.70898e-06
4758.18	0.00112	0.0044223
4762.52	0.582245	1.62659e-05
4766.84	0.582275	4.27246e-07
4771.2	0.00122681	0.00368835
4775.54	0.582245	1.46179e-05
4779.86	0.582245	4.27246e-07
4784.22	0.00119629	0.00307861
4788.56	0.582275	1.28479e-05
4792.88	0.582214	6.10352e-07
4797.26	0.58136	0.0177368
4801.58	0.582275	1.14136e-05
4805.9	0.582245	1.2207e-07
4810.28	0.581451	0.015033
4814.6	0.582306	1.16577e-05
4818.92	0.582245	-9.15527e-07
4823.3	0.581665	0.0124115
4827.62	0.582184	8.57544e-06
4831.94	0.582275	-2.31934e-06
4836.32	0.581909	0.00891724
4840.64	0.582306	9.06372e-06
4844.96	0.582306	-1.7395e-06
4849.34	0.582245	0.0022168
4853.66	0.582245	7.8125e-06
4857.98	0.582275	-6.10352e-08
4862.36	0.582153	0.000978394
4866.68	0.582306	7.41577e-06
4871	0.582245	-9.76562e-07
4875.38	0.582184	0.000531616
4879.7	0.582306	5.58472e-06
4884.02	0.582275	-2.34985e-06
4888.4	0.582275	0.000310394
4892.72	0.582306	5.09644e-06
4897.04	0.582306	-1.64795e-06
4901.42	0.582275	0.000190796
4905.74	0.582306	5.09644e-06
4910.06	0.582306	-2.80762e-06
4914.44	0.582245	0.000121643
4918.76	0.582245	4.85229e-06
4923.08	0.582245	-8.8501e-07
4927.46	0.582306	7.99866e-05
4931.78	0.582184	3.69263e-06
4936.1	0.582245	-1.52588e-06
4940.48	0.582275	5.69458e-05
4944.8	0.582214	2.89917e-06
4949.12	0.582275	-2.22778e-06
4953.5	0.582214	4.37317e-05
4957.82	0.582245	2.96021e-06
4962.16	-0.69696	-0.0241089
4966.52	0.582184	3.53088e-05
4970.84	0.582214	1.61743e-06
4975.18	-0.697174	-0.0212616
4979.54	0.582245	2.84729e-05
4983.86	0.582214	2.34985e-06
4988.2	-0.697357	-0.019101
4992.56	0.582245	2.37732e-05
4996.88	0.582214	1.92261e-06
5001.22	-0.697388	-0.0173615
5005.58	0.582245	2.14233e-05
5009.9	0.582184	2.10571e-06
5014.26	0.00105591	0.00508301
5018.6	0.582184	1.83411e-05
5022.92	0.582245	1.37329e-06
5027.28	0.00111389	0.00418335
5031.62	0.582214	1.75171e-05
5035.94	0.582184	1.34277e-06
5040.3	0.00117798	0.00348602
5044.64	0.582275	1.51672e-05
5048.96	0.582306	1.0376e-06
5053.32	0.00119324	0.00291718
5057.66	0.582275	1.28479e-05
5061.98	0.582184	-2.44141e-07
5066.36	0.58136	0.0177399
5070.68	0.582275	1.17798e-05
5075	0.582245	-3.05176e-08
5079.38	0.581482	0.0151276
5083.7	0.582275	1.08948e-05
5088.02	0.582275	6.71387e-07
5092.4	0.581665	0.012619
5096.72	0.582275	9.0332e-06
5101.04	0.582275	-5.18799e-07
5105.42	0.581909	0.00944824
5109.74	0.582275	8.60596e-06
5114.06	0.582306	-9.46045e-07
5118.44	0.582306	0.00271851
5122.76	0.582214	7.59888e-06
5127.08	0.582214	-8.54492e-07
5131.46	0.582184	0.00119293
5135.78	0.582214	6.46973e-06
5140.1	0.582275	-1.00708e-06
5144.48	0.582184	0.000664978
5148.8	0.582275	6.40869e-06
5153.12	0.582306	-1.83105e-06
5157.5	0.582306	0.000401978
5161.82	0.582275	4.63867e-06
5166.14	0.582245	-1.77002e-06
5170.52	0.582245	0.000251801
5174.84	0.582306	5.64575e-06
5179.16	0.582306	-1.5564e-06
5183.54	0.582214	0.000163483
5187.86	0.582275	4.3335e-06
5192.18	0.582245	-2.34985e-06
5196.56	0.582275	0.000109375
5200.88	0.582245	4.05884e-06
5205.2	0.582275	-2.47192e-06
5209.58	0.582245	7.51038e-05
5213.9	0.582275	3.05176e-06
5218.22	0.582214	-2.80762e-06
5222.6	0.582306	5.43823e-05
5226.92	0.582336	2.71606e-06
5231.26	-0.697021	-0.0242126
5235.62	0.582245	4.18701e-05
5239.94	0.582275	3.32642e-06
5244.28	-0.697144	-0.0214386
5248.64	0.582275	3.18909e-05
5252.96	0.582214	3.32642e-06
5257.3	-0.697327	-0.0193329
5261.66	0.582275	2.69775e-05
5265.98	0.582214	2.22778e-06
5270.32	-0.697418	-0.0176239
5274.68	0.582245	2.31628e-05
5279	0.582245	2.47192e-06
5283.36	0.00105896	0.00482941
5287.7	0.582184	1.92261e-05
5292.02	0.582184	1.0376e-06
5296.38	0.00113525	0.00394928
5300.72	0.582245	1.62964e-05
5305.04	0.582245	5.18799e-07
5309.4	0.00119629	0.00329041
5313.74	0.582245	1.52588e-05
5318.06	0.582245	6.10352e-08
5322.42	0.0012146	0.00275818
5326.76	0.582275	1.41907e-05
5331.08	0.582184	3.05176e-08
5335.46	0.58136	0.0177002
5339.78	0.582306	1.20239e-05
5344.1	0.582245	-1.83105e-07
5348.48	0.581482	0.0152008
5352.8	0.582245	1.19324e-05
5357.12	0.582184	9.15527e-08
5361.5	0.581604	0.0127991
5365.82	0.582275	9.3689e-06
5370.14	0.582275	-6.10352e-07
5374.52	0.581879	0.00986023
5378.84	0.582275	9.79614e-06
5383.16	0.582306	-3.96729e-07
5387.54	0.582184	0.00327515
5391.86	0.582275	7.90405e-06
5396.18	0.582306	-1.12915e-06
5400.56	0.582153	0.001409
5404.88	0.582306	8.17871e-06
5409.2	0.582245	-1.89209e-06
5413.58	0.582153	0.000800476
5417.9	0.582214	5.98145e-06
5422.22	0.582245	-1.40381e-06
5426.6	0.582214	0.00049469
5430.92	0.582245	6.65283e-06
5435.24	0.582245	-1.5564e-06
5439.62	0.582275	0.000318573
5443.94	0.582245	5.21851e-06
5448.26	0.582245	-2.28882e-06
5452.64	0.582214	0.000211945
5454.82	0.582245	-1.89209e-06