File: Edgar/20240503/20240503/electrodeposition_pulsed_potential_20240503_A/pulses_1000_to_2000.txt
Time (s)	WE(1).Potential (V)	WE(1).Current (A)
1506.23	-0.69754	-0.0170593
1510.59	0.582275	6.073e-06
1514.91	0.582306	-4.91333e-06
1519.25	-0.697784	-0.0129791
1523.61	0.582245	4.94385e-06
1527.93	0.582245	-4.79126e-06
1532.27	-0.697845	-0.010379
1536.63	0.582245	4.45557e-06
1540.95	0.582214	-5.00488e-06
1545.29	-0.698029	-0.00862732
1549.65	0.582275	4.02832e-06
1553.97	0.582245	-5.15747e-06
1558.33	0.000869751	0.0101013
1562.67	0.582306	3.96729e-06
1566.99	0.582245	-5.0354e-06
1571.35	0.00111389	0.00725525
1575.69	0.582153	4.42505e-06
1580.01	0.582275	-3.90625e-06
1584.37	0.00114441	0.00528503
1588.71	0.582275	1.89209e-06
1593.03	0.582245	-4.36401e-06
1597.39	0.00118408	0.00368561
1601.73	0.582245	7.01904e-07
1606.05	0.582306	-3.9978e-06
1610.43	0.582001	0.00982056
1614.75	0.582245	6.10352e-08
1619.07	0.582275	-4.63867e-06
1623.45	0.582306	0.000297302
1627.77	0.582214	9.15527e-07
1632.09	0.582275	-5.0354e-06
1636.47	0.582245	0.000133148
1640.79	0.582245	-3.05176e-08
1645.11	0.582245	-5.49316e-06
1649.49	0.582306	8.4259e-05
1653.81	0.582306	-1.2207e-07
1658.13	0.582245	-5.70679e-06
1662.51	0.582184	6.11877e-05
1666.83	0.582275	-1.06812e-06
1671.15	0.582214	-3.38745e-06
1675.53	0.582245	4.66309e-05
1679.85	0.582336	-7.01904e-07
1684.17	0.582245	-5.5542e-06
1688.55	0.582306	3.68652e-05
1692.87	0.582214	-7.62939e-07
1697.19	0.582275	-5.58472e-06
1701.57	0.582245	3.06396e-05
1705.89	0.582245	-2.22778e-06
1710.21	0.582306	-6.01196e-06
1714.59	0.582275	2.4353e-05
1718.91	0.582275	-1.19019e-06
1723.23	0.582275	-5.12695e-06
1727.61	0.582306	1.87073e-05
1731.93	0.582245	-1.31226e-06
1736.25	0.582245	-5.00488e-06
1740.63	0.582184	1.68762e-05
1744.95	0.582306	-3.35693e-07
1749.27	0.582245	-5.15747e-06
1753.65	0.582214	1.297e-05
1757.97	0.582275	-2.28882e-06
1762.29	0.582336	-5.06592e-06
1766.67	0.582275	1.29395e-05
1770.99	0.582153	-1.40381e-06
1775.33	-0.69754	-0.0179901
1779.69	0.582306	1.03149e-05
1784.01	0.582214	-3.75366e-06
1788.35	-0.697723	-0.0140625
1792.71	0.582214	1.03149e-05
1797.03	0.582214	-3.66211e-06
1801.37	-0.697815	-0.0114777
1805.73	0.582245	8.39233e-06
1810.05	0.582275	-2.86865e-06
1814.39	-0.697968	-0.00962524
1818.75	0.582275	7.26318e-06
1823.07	0.582275	-3.20435e-06
1827.43	0.000842285	0.00986328
1831.77	0.582245	5.40161e-06
1836.09	0.582275	-2.28882e-06
1840.45	0.00107727	0.00731476
1844.79	0.582245	5.24902e-06
1849.11	0.582275	-4.36401e-06
1853.47	0.00117493	0.00551697
1857.81	0.582184	4.02832e-06
1862.13	0.582275	-3.63159e-06
1866.49	0.00116882	0.00405273
1870.83	0.582184	3.35693e-06
1875.15	0.582275	-3.69263e-06
1879.53	0.581757	0.0125366
1883.85	0.582306	2.89917e-06
1888.17	0.582245	-4.76074e-06
1892.55	0.582245	0.000544128
1896.87	0.582214	2.59399e-06
1901.19	0.582275	-3.96729e-06
1905.57	0.582245	0.000176758
1909.89	0.582214	1.70898e-06
1914.21	0.582245	-5.31006e-06
1918.59	0.582214	0.000106598
1922.91	0.582245	1.5564e-06
1927.23	0.582245	-2.41089e-06
1931.61	0.582275	7.2998e-05
1935.93	0.582184	1.64795e-06
1940.25	0.582214	-4.45557e-06
1944.63	0.582214	5.69153e-05
1948.95	0.582306	-8.23975e-07
1953.27	0.582184	-4.79126e-06
1957.65	0.582306	4.56238e-05
1961.97	0.582245	-9.76562e-07
1966.29	0.582245	-5.85937e-06
1970.67	0.582214	3.72314e-05
1974.99	0.582275	-1.77002e-06
1979.31	0.582275	-4.24194e-06
1983.69	0.582306	2.93579e-05
1988.01	0.582184	-8.8501e-07
1992.33	0.582214	-3.78418e-06
1996.71	0.582245	2.45667e-05
2001.03	0.582306	-1.70898e-06
2005.35	0.582306	-5.09644e-06
2009.73	0.582275	2.22473e-05
2014.05	0.582184	3.35693e-07
2018.37	0.582245	-5.70679e-06
2022.75	0.582245	1.83716e-05
2027.07	0.582245	-2.10571e-06
2031.39	0.582214	-4.42505e-06
2035.77	0.582214	1.55945e-05
2040.09	0.582275	-1.92261e-06
2044.43	-0.697357	-0.0190643
2048.79	0.582214	1.3916e-05
2053.11	0.582245	-1.5564e-06
2057.45	-0.697571	-0.0150421
2061.81	0.582275	1.21155e-05
2066.13	0.582245	-1.95313e-06
2070.47	-0.697815	-0.0125061
2074.83	0.582214	9.67407e-06
2079.15	0.582275	-1.67847e-06
2083.49	-0.697845	-0.0106079
2087.85	0.582214	9.0332e-06
2092.17	0.582245	-3.38745e-06
2096.53	0.000784302	0.00949402
2100.87	0.582214	7.72095e-06
2105.19	0.582306	-2.16675e-06
2109.56	0.00109253	0.00724487
2113.9	0.582336	7.23267e-06
2118.22	0.582336	-2.0752e-06
2122.58	0.00113525	0.00560425
2126.92	0.582275	5.43213e-06
2131.24	0.582245	-2.80762e-06
2135.6	0.00116882	0.00425873
2139.94	0.582214	4.94385e-06
2144.26	0.582275	-3.66211e-06
2148.64	0.581604	0.0141113
2152.96	0.582275	3.87573e-06
2157.28	0.582306	-4.3335e-06
2161.66	0.582428	0.00189636
2165.98	0.582184	3.11279e-06
2170.3	0.582245	-2.16675e-06
2174.68	0.582245	0.000233765
2179	0.582245	3.66211e-06
2183.32	0.582245	-3.17383e-06
2187.7	0.582245	0.000129791
2192.02	0.582214	2.86865e-06
2196.34	0.582245	-3.60107e-06
2200.72	0.582245	8.78906e-05
2205.04	0.582245	1.80054e-06
2209.36	0.582245	-3.50952e-06
2213.74	0.582245	6.57959e-05
2218.06	0.582275	1.58691e-06
2222.38	0.582306	-2.89917e-06
2226.76	0.582214	5.07507e-05
2231.08	0.582275	1.43433e-06
2235.4	0.582245	-3.14331e-06
2239.78	0.582184	4.16565e-05
2244.1	0.582214	1.52588e-07
2248.42	0.582275	-3.63159e-06
2252.8	0.582214	3.4668e-05
2257.12	0.582214	-1.86157e-06
2261.44	0.582214	-4.97437e-06
2265.82	0.582336	3.01208e-05
2270.14	0.582306	6.10352e-07
2274.46	0.582275	-5.21851e-06
2278.84	0.582275	2.59705e-05
2283.16	0.582245	-1.12915e-06
2287.48	0.582214	-4.30298e-06
2291.86	0.582245	2.18506e-05
2296.18	0.582214	-2.74658e-07
2300.5	0.582275	-5.67627e-06
2304.88	0.582275	1.828e-05
2309.2	0.582306	-1.52588e-07
2313.54	-0.697327	-0.0200989
2317.9	0.582214	1.49231e-05
2322.22	0.582275	-7.01904e-07
2326.56	-0.697571	-0.0159973
2330.92	0.582214	1.34583e-05
2335.24	0.582336	-2.0752e-06
2339.58	-0.697784	-0.0134949
2343.94	0.582184	1.17798e-05
2348.26	0.582245	-2.68555e-06
2352.6	-0.697815	-0.0115814
2356.96	0.582275	9.33838e-06
2361.28	0.582245	-1.95313e-06
2365.64	0.000778198	0.00906982
2369.98	0.582214	8.42285e-06
2374.3	0.582245	-1.92261e-06
2378.66	0.00110168	0.00708466
2383	0.582214	8.23975e-06
2387.32	0.582214	-3.96729e-06
2391.68	0.00112305	0.00559967
2396.02	0.582214	6.92749e-06
2400.34	0.582245	-2.59399e-06
2404.7	0.00115051	0.0043634
2409.04	0.582275	7.41577e-06
2413.36	0.582306	-2.74658e-06
2417.74	0.581451	0.0152649
2422.06	0.582214	6.68335e-06
2426.38	0.582306	-2.59399e-06
2430.76	0.582001	0.00845337
2435.08	0.582184	5.27954e-06
2439.4	0.582214	-1.52588e-06
2443.78	0.582275	0.000366638
2448.1	0.582275	3.87573e-06
2452.42	0.582336	-2.38037e-06
2456.8	0.582275	0.000152618
2461.12	0.582214	2.89917e-06
2465.44	0.582184	-2.89917e-06
2469.82	0.582245	0.000102173
2474.14	0.582245	2.47192e-06
2478.46	0.582245	-3.50952e-06
2482.84	0.582214	7.5592e-05
2487.16	0.582275	1.64795e-06
2491.48	0.582275	-3.9978e-06
2495.86	0.582275	5.86548e-05
2500.18	0.582275	2.38037e-06
2504.5	0.582214	-5.06592e-06
2508.88	0.582214	4.80957e-05
2513.2	0.582245	3.05176e-07
2517.52	0.582275	-4.02832e-06
2521.9	0.582214	3.8208e-05
2526.22	0.582306	2.13623e-06
2530.54	0.582184	-3.32642e-06
2534.92	0.582214	3.3783e-05
2539.24	0.582245	1.37329e-06
2543.56	0.582184	-5.00488e-06
2547.94	0.582306	2.81067e-05
2552.26	0.582245	4.88281e-07
2556.58	0.582275	-4.42505e-06
2560.96	0.582214	2.30408e-05
2565.28	0.582214	3.05176e-07
2569.6	0.582214	-4.88281e-06
2573.98	0.582184	2.15149e-05
2578.3	0.582245	-9.46045e-07
2582.64	-0.697296	-0.020993
2587	0.582245	1.88293e-05
2591.32	0.582275	-1.58691e-06
2595.66	-0.697479	-0.0169159
2600.02	0.582306	1.58997e-05
2604.34	0.582336	-1.34277e-06
2608.68	-0.697723	-0.0144073
2613.04	0.582245	1.43433e-05
2617.36	0.582275	-3.96729e-07
2621.7	-0.697784	-0.0125
2626.06	0.582275	1.297e-05
2630.38	0.582306	-1.37329e-06
2634.74	0.00078125	0.00857239
2639.08	0.582275	9.94873e-06
2643.4	0.582336	-1.49536e-06
2647.76	0.00110779	0.00681549
2652.1	0.582245	9.97925e-06
2656.42	0.582306	-5.18799e-07
2660.78	0.00115662	0.00548157
2665.12	0.582245	7.32422e-06
2669.44	0.582245	-1.98364e-06
2673.8	0.00113831	0.00435699
2678.14	0.582275	6.40869e-06
2682.46	0.582275	-1.92261e-06
2686.84	0.581451	0.0161011
2691.16	0.582214	7.62939e-06
2695.48	0.582306	-2.50244e-06
2699.86	0.581787	0.0110535
2704.18	0.582306	5.00488e-06
2708.5	0.582214	-4.11987e-06
2712.88	0.582245	0.000996704
2717.2	0.582245	4.02832e-06
2721.52	0.582184	-2.7771e-06
2725.9	0.582245	0.000203156
2730.22	0.582245	4.3335e-06
2734.54	0.582245	-3.87573e-06
2738.92	0.582245	0.000116455
2743.24	0.582275	3.96729e-06
2747.56	0.582275	-3.23486e-06
2751.94	0.582245	8.30994e-05
2756.26	0.582336	2.38037e-06
2760.58	0.582306	-2.38037e-06
2764.96	0.582245	6.46057e-05
2769.28	0.582306	3.20435e-06
2773.6	0.582275	-2.41089e-06
2777.98	0.582245	5.2124e-05
2782.3	0.582275	2.01416e-06
2786.62	0.582245	-3.75366e-06
2791	0.582184	4.27551e-05
2795.32	0.582214	7.62939e-07
2799.64	0.582275	-1.31226e-06
2804.02	0.582306	3.68958e-05
2806.2	0.582275	-3.57056e-06