File: Edgar/20240503/20240503/electrodeposition_pulsed_potential_20240503_A/pulses_2000_to_3000.txt
Time (s)	WE(1).Potential (V)	WE(1).Current (A)
2830.56	-0.697113	-0.02164
2834.92	0.582184	1.95923e-05
2839.24	0.582306	-3.05176e-08
2843.58	-0.69751	-0.0176727
2847.94	0.582275	1.69678e-05
2852.26	0.582245	1.2207e-07
2856.6	-0.697632	-0.0151398
2860.96	0.582214	1.63574e-05
2865.28	0.582245	6.10352e-08
2869.62	-0.697784	-0.0132507
2873.98	0.582245	1.42517e-05
2878.3	0.582275	-1.31226e-06
2882.66	0.000827026	0.00813904
2887	0.582245	1.19629e-05
2891.32	0.582275	-2.04468e-06
2895.68	0.00111389	0.00655334
2900.02	0.582336	1.09253e-05
2904.34	0.582275	-1.5564e-06
2908.7	0.00115967	0.00531555
2913.04	0.582245	1.00098e-05
2917.36	0.582306	-1.58691e-06
2921.72	0.00119019	0.00426849
2926.06	0.582275	9.82666e-06
2930.38	0.582245	-2.16675e-06
2934.76	0.581451	0.0165924
2939.08	0.582336	7.53784e-06
2943.4	0.582245	-2.53296e-06
2947.78	0.581665	0.012204
2952.1	0.582245	6.40869e-06
2956.42	0.582275	-2.62451e-06
2960.8	0.582306	0.00271881
2965.12	0.582214	7.72095e-06
2969.44	0.582245	-3.02124e-06
2973.82	0.582245	0.000334747
2978.14	0.582336	4.60815e-06
2982.46	0.582214	-1.7395e-06
2986.84	0.582245	0.00013797
2991.16	0.582245	4.88281e-06
2995.48	0.582245	-3.66211e-06
2999.86	0.582306	9.0332e-05
3004.18	0.582245	2.86865e-06
3008.5	0.582153	-2.16675e-06
3012.88	0.582275	7.00989e-05
3017.2	0.582275	3.63159e-06
3021.52	0.582214	-2.04468e-06
3025.9	0.582275	5.7251e-05
3030.22	0.582306	2.47192e-06
3034.54	0.582214	-3.78418e-06
3038.92	0.582245	4.60815e-05
3043.24	0.582214	2.01416e-06
3047.56	0.582214	-3.96729e-06
3051.94	0.582245	3.91541e-05
3056.26	0.582214	2.34985e-06
3060.58	0.582214	-2.2583e-06
3064.96	0.582245	3.31726e-05
3069.28	0.582245	1.61743e-06
3073.6	0.582306	-3.14331e-06
3077.98	0.582275	2.86865e-05
3082.3	0.582245	1.95313e-06
3086.62	0.582214	-2.92969e-06
3091	0.582214	2.43225e-05
3095.32	0.582245	1.77002e-06
3099.66	-0.697205	-0.02229
3104.02	0.582245	2.02942e-05
3108.34	0.582275	3.05176e-08
3112.68	-0.697357	-0.0184784
3117.04	0.582214	1.98975e-05
3121.36	0.582336	1.06812e-06
3125.7	-0.69754	-0.0159393
3130.06	0.582245	1.69067e-05
3134.38	0.582245	-9.15527e-08
3138.72	-0.697662	-0.0140625
3143.08	0.582184	1.60522e-05
3147.4	0.582245	-8.54492e-07
3151.76	0.000842285	0.00765991
3156.1	0.582245	1.41602e-05
3160.42	0.582245	-6.71387e-07
3164.78	0.00108032	0.0062439
3169.12	0.582275	1.26648e-05
3173.44	0.582214	-8.8501e-07
3177.8	0.00115356	0.0051236
3182.14	0.582275	1.09558e-05
3186.46	0.582245	-1.46484e-06
3190.82	0.0011322	0.0041684
3195.16	0.582214	8.3313e-06
3199.48	0.582245	-8.23975e-07
3203.86	0.581329	0.0170715
3208.18	0.582306	7.87354e-06
3212.5	0.582245	-3.05176e-08
3216.88	0.581696	0.013147
3221.2	0.582214	7.72095e-06
3225.52	0.582306	-1.00708e-06
3229.9	0.582001	0.00784302
3234.22	0.582275	6.31714e-06
3238.54	0.582306	-4.88281e-07
3242.92	0.582214	0.000705566
3247.24	0.582245	6.5918e-06
3251.56	0.582275	-2.74658e-06
3255.94	0.582184	0.000216278
3260.26	0.582153	5.21851e-06
3264.58	0.582214	-2.31934e-06
3268.96	0.582245	0.00010968
3273.28	0.582214	5.0354e-06
3277.6	0.582245	-2.65503e-06
3281.98	0.582245	7.69043e-05
3286.3	0.582184	4.54712e-06
3290.62	0.582214	-2.89917e-06
3295	0.582184	5.93567e-05
3299.32	0.582275	4.05884e-06
3303.64	0.582275	-2.53296e-06
3308.02	0.582245	4.9469e-05
3312.34	0.582275	3.17383e-06
3316.66	0.582275	-3.35693e-06
3321.04	0.582214	4.14429e-05
3325.36	0.582275	3.26538e-06
3329.68	0.582275	-2.89917e-06
3334.06	0.582214	3.44238e-05
3338.38	0.582245	2.19727e-06
3342.7	0.582245	-3.57056e-06
3347.08	0.582214	2.95105e-05
3351.4	0.582275	1.2207e-06
3355.72	0.582245	-2.41089e-06
3360.1	0.582275	2.67029e-05
3364.42	0.582245	1.52588e-07
3368.76	-0.697083	-0.0226715
3373.12	0.582306	2.33154e-05
3377.44	0.582275	9.46045e-07
3381.78	-0.697388	-0.0190552
3386.14	0.582214	2.05383e-05
3390.46	0.582184	3.05176e-08
3394.8	-0.69754	-0.0165436
3399.16	0.582214	1.85242e-05
3403.48	0.582184	2.44141e-07
3407.82	-0.697632	-0.0146759
3412.18	0.582214	1.68457e-05
3416.5	0.582275	1.83105e-07
3420.86	0.00098877	0.00724396
3425.2	0.582245	1.43433e-05
3429.52	0.582245	-2.74658e-07
3433.88	0.00111389	0.00594604
3438.22	0.582214	1.34583e-05
3442.54	0.582275	-4.88281e-07
3446.9	0.00115356	0.00490601
3451.24	0.582245	1.11084e-05
3455.56	0.582184	5.79834e-07
3459.92	0.00119324	0.00401581
3464.26	0.582245	1.00098e-05
3468.58	0.582245	-1.40381e-06
3472.96	0.58139	0.0173401
3477.28	0.582275	8.30078e-06
3481.6	0.582275	-1.37329e-06
3485.98	0.581573	0.0137421
3490.3	0.582306	8.57544e-06
3494.62	0.582214	-1.7395e-06
3499	0.581848	0.00953674
3503.32	0.582275	7.96509e-06
3507.64	0.582214	-3.08228e-06
3512.02	0.582275	0.00128052
3516.34	0.582367	6.62231e-06
3520.66	0.582214	-6.71387e-07
3525.04	0.582245	0.000367706
3529.36	0.582184	5.76782e-06
3533.68	0.582245	-2.50244e-06
3538.06	0.582184	0.000159821
3542.38	0.582214	5.70679e-06
3546.7	0.582245	-2.04468e-06
3551.08	0.582214	9.17358e-05
3555.4	0.582245	3.72314e-06
3559.72	0.582214	-1.83105e-06
3564.1	0.582214	6.56128e-05
3568.42	0.582214	3.54004e-06
3572.74	0.582245	-1.83105e-06
3577.12	0.582245	5.05371e-05
3581.44	0.582214	3.60107e-06
3585.76	0.582336	-2.34985e-06
3590.14	0.582214	4.37317e-05
3594.46	0.582275	1.52588e-06
3598.78	0.582275	-2.99072e-06
3603.16	0.582275	3.68042e-05
3607.48	0.582245	2.34985e-06
3611.8	0.582275	-1.83105e-06
3616.18	0.582275	3.16162e-05
3620.5	0.582214	2.86865e-06
3624.82	0.582275	-3.23486e-06
3629.2	0.582245	2.91138e-05
3633.52	0.582184	1.70898e-06
3637.86	-0.697083	-0.0230682
3642.22	0.582275	2.43835e-05
3646.54	0.582214	1.34277e-06
3650.88	-0.697296	-0.0196228
3655.24	0.582275	2.24609e-05
3659.56	0.582275	1.28174e-06
3663.9	-0.697449	-0.017157
3668.26	0.582214	1.87378e-05
3672.58	0.582245	1.70898e-06
3676.92	-0.697632	-0.0152893
3681.28	0.582275	1.69678e-05
3685.6	0.582245	1.34277e-06
3689.96	0.0009765625	0.00679474
3694.3	0.582245	1.49231e-05
3698.62	0.582245	3.05176e-08
3702.98	0.00107422	0.00558899
3707.32	0.582214	1.37329e-05
3711.64	0.582275	-9.15527e-08
3716	0.00116272	0.00463104
3720.34	0.582214	1.2207e-05
3724.66	0.582275	-4.57764e-07
3729.02	0.00115356	0.00381561
3733.36	0.582214	1.00403e-05
3737.68	0.582245	-1.49536e-06
3742.06	0.581329	0.0175201
3746.38	0.582306	9.49097e-06
3750.7	0.582275	-1.25122e-06
3755.08	0.581573	0.0141998
3759.4	0.582275	8.17871e-06
3763.72	0.582275	-1.77002e-06
3768.1	0.581726	0.0106384
3772.42	0.582275	8.91113e-06
3776.74	0.582306	-7.93457e-07
3781.12	0.582275	0.00237
3785.44	0.582214	7.87354e-06
3789.76	0.582214	-1.92261e-06
3794.14	0.582214	0.000624084
3798.46	0.582214	6.37817e-06
3802.78	0.582306	-8.54492e-07
3807.16	0.582214	0.000259766
3811.48	0.582214	6.56128e-06
3815.8	0.582336	-1.43433e-06
3820.18	0.582214	0.000131744
3824.5	0.582275	4.85229e-06
3828.82	0.582275	-2.34985e-06
3833.2	0.582214	8.11768e-05
3837.52	0.582245	4.30298e-06
3841.84	0.582306	-1.98364e-06
3846.22	0.582306	5.79224e-05
3850.54	0.582214	3.57056e-06
3854.86	0.582275	-2.50244e-06
3859.24	0.582214	4.72412e-05
3863.56	0.582245	2.83813e-06
3867.88	0.582275	-2.0752e-06
3872.26	0.582275	3.88794e-05
3876.58	0.582245	2.13623e-06
3880.9	0.582245	-3.32642e-06
3885.28	0.582336	3.26233e-05
3889.6	0.582306	2.50244e-06
3893.92	0.582306	-3.11279e-06
3898.3	0.582275	2.9541e-05
3902.62	0.582245	7.01904e-07
3906.96	-0.697083	-0.0234314
3911.32	0.582306	2.52075e-05
3915.64	0.582214	1.80054e-06
3919.98	-0.697266	-0.0201599
3924.34	0.582245	2.21558e-05
3928.66	0.582275	1.77002e-06
3933	-0.697479	-0.017746
3937.36	0.582275	1.95618e-05
3941.68	0.582245	1.19019e-06
3946.02	-0.69754	-0.0158966
3950.38	0.582245	1.78223e-05
3954.7	0.582214	1.49536e-06
3959.06	0.000997925	0.00638153
3963.4	0.582214	1.53503e-05
3967.72	0.582214	8.54492e-07
3972.08	0.00108643	0.00527618
3976.42	0.582306	1.30005e-05
3980.74	0.582214	4.27246e-07
3985.1	0.00117493	0.00439026
3989.44	0.582245	1.33362e-05
3993.76	0.582275	-9.15527e-07
3998.12	0.00121155	0.00363434
4002.46	0.582275	1.09253e-05
4006.78	0.582245	-3.96729e-07
4011.16	0.58136	0.0176727
4015.48	0.582245	1.08948e-05
4019.8	0.582214	-3.05176e-08
4024.18	0.581573	0.0145386
4028.5	0.582275	9.0332e-06
4032.82	0.582245	-1.89209e-06
4037.2	0.581726	0.0113373
4041.52	0.582275	8.75854e-06
4045.84	0.582275	-1.92261e-06
4050.22	0.582245	0.00430847
4054.54	0.582275	8.11768e-06
4058.86	0.582275	-1.34277e-06
4063.24	0.582306	0.000959473
4067.56	0.582245	8.20923e-06
4071.88	0.582245	-1.49536e-06
4076.26	0.582275	0.00040506
4080.58	0.582245	7.17163e-06
4084.9	0.582245	-1.52588e-06
4089.28	0.582245	0.000202057
4093.6	0.582245	5.52368e-06
4097.92	0.582245	-1.98364e-06
4102.3	0.582214	0.000112946
4106.62	0.582245	5.09644e-06
4110.94	0.582367	-1.98364e-06
4115.32	0.582306	7.25708e-05
4119.64	0.582245	3.93677e-06
4123.96	0.582306	-1.77002e-06
4128.34	0.582214	5.3772e-05
4130.52	0.582214	-3.23486e-06