File: Edgar/20230907/20230907/electrodeposition_WO3_thin_films_onto_ITO_A/wo3_film_continuous_electrodeposition_A/OCP_3
Time (s)	WE(1).Potential (V)	OCP value (V)
620.822	-0.5078125	-0.0111412
621.822	-0.444366
622.822	-0.381104
623.822	-0.331238
624.822	-0.293884
625.822	-0.266907
626.822	-0.246399
627.822	-0.23053
628.822	-0.217834
629.822	-0.207336
630.822	-0.198486
631.822	-0.190948
632.822	-0.184479
633.822	-0.178925
634.822	-0.174194
635.822	-0.170166
636.822	-0.166626
637.822	-0.163666
638.822	-0.161133
639.822	-0.158875
640.822	-0.156952
641.822	-0.155243
642.822	-0.153748
643.822	-0.152283
644.822	-0.151123
645.822	-0.150085
646.822	-0.14917
647.822	-0.1484375
648.822	-0.147705
649.822	-0.147064
650.822	-0.146484
651.822	-0.145905
652.822	-0.145447
653.822	-0.145081
654.822	-0.144592
655.822	-0.143616
656.822	-0.143311
657.822	-0.142731
658.822	-0.141998
659.822	-0.142487
660.822	-0.142365
661.822	-0.142029
662.822	-0.141693
663.822	-0.141327
664.822	-0.140869
665.822	-0.14032
666.822	-0.139801
667.822	-0.139252
668.822	-0.13855
669.822	-0.136993
670.822	-0.136383
671.822	-0.135956
672.822	-0.135284
673.822	-0.134247
674.822	-0.13266
675.822	-0.131927
676.822	-0.130463
677.822	-0.129333
678.822	-0.12796
679.822	-0.126495
680.822	-0.124878
681.822	-0.123474
682.822	-0.12204
683.822	-0.120697
684.822	-0.119324
685.822	-0.117981
686.822	-0.116608
687.822	-0.115173
688.822	-0.11377
689.822	-0.112335
690.822	-0.110962
691.822	-0.10968
692.822	-0.108398
693.822	-0.107117
694.822	-0.105896
695.822	-0.104584
696.822	-0.103302
697.822	-0.102081
698.822	-0.10083
699.822	-0.0996094
700.822	-0.0984192
701.822	-0.097168
702.822	-0.0960083
703.822	-0.0948486
704.822	-0.0938416
705.822	-0.0925598
706.822	-0.0913696
707.822	-0.0901794
708.822	-0.0890198
709.822	-0.0878906
710.822	-0.086731
711.822	-0.0856018
712.822	-0.0845337
713.822	-0.0834656
714.822	-0.0823364
715.822	-0.0812378
716.822	-0.0801392
717.822	-0.0791016
718.822	-0.0780334
719.822	-0.0769653
720.822	-0.0758667
721.822	-0.0747681
722.822	-0.0737305
723.822	-0.0726624
724.822	-0.0716858
725.822	-0.0705261
726.822	-0.069458
727.822	-0.0683289
728.822	-0.0672607
729.822	-0.0661621
730.822	-0.0651855
731.822	-0.0641479
732.822	-0.0630493
733.822	-0.0619812
734.822	-0.0609741
735.822	-0.0598755
736.822	-0.0588379
737.822	-0.0578003
738.822	-0.0567017
739.822	-0.0556335
740.822	-0.0545349
741.822	-0.0534363
742.822	-0.0523376
743.822	-0.0513
744.822	-0.0502319
745.822	-0.0491364
746.822	-0.0480377
747.822	-0.0469421
748.822	-0.0458221
749.822	-0.044751
750.822	-0.0437012
751.822	-0.0426086
752.822	-0.0415833
753.822	-0.0404449
754.822	-0.0393616
755.822	-0.0382263
756.822	-0.0370941
757.822	-0.0360565
758.822	-0.0348724
759.822	-0.0337769
760.822	-0.0327179
761.822	-0.0316437
762.822	-0.0305481
763.822	-0.0294098
764.822	-0.0283325
765.822	-0.0272186
766.822	-0.0261414
767.822	-0.025058
768.822	-0.0239929
769.822	-0.0229401
770.822	-0.0218262
771.822	-0.0207153
772.822	-0.0196411
773.822	-0.0187622
774.822	-0.0175751
775.822	-0.0164337
776.822	-0.0152588
777.822	-0.0141998
778.822	-0.0131348
779.822	-0.0121002
780.822	-0.0111084
781.822	-0.0102478