File: Edgar/20230907/20230907/electrodeposition_WO3_thin_films_onto_ITO_A/wo3_film_continuous_electrodeposition_A/OCP_1
Time (s)	WE(1).Potential (V)	OCP value (V)
2.74376	0.629272	0.629578
3.74376	0.629272
4.74376	0.629272
5.74376	0.629272
6.74376	0.629272
7.74376	0.629272
8.74376	0.629272
9.74376	0.629272
10.7438	0.629578
11.7438	0.629578
12.7438	0.629578
13.7438	0.629578
14.7438	0.629578
15.7438	0.629578
16.7438	0.629578
17.7438	0.629578