File: Edgar/20240605/20240605/electrodeposition_pulsed_potential_20240605_A/data/OCP_3
Time (s)	WE(1).Potential (V)
4456.83	0.596008
4457.83	0.588074
4458.83	0.581055
4459.83	0.574646
4460.83	0.568542
4461.83	0.563049
4462.83	0.558167
4463.83	0.553284
4464.83	0.549316
4465.83	0.545349
4466.83	0.541687
4467.83	0.538025
4468.83	0.534973
4469.83	0.531921
4470.83	0.529175
4471.83	0.526428
4472.83	0.524292
4473.83	0.521851
4474.83	0.519714
4475.83	0.517883
4476.83	0.516052
4477.83	0.514221
4478.83	0.512695
4479.83	0.511169
4480.83	0.509949
4481.83	0.508423
4482.83	0.507202
4483.83	0.506287
4484.83	0.505066
4485.83	0.50415
4486.83	0.503235
4487.83	0.502319
4488.83	0.501709
4489.83	0.500793
4490.83	0.500183
4491.83	0.499573
4492.83	0.49881
4493.83	0.498322
4494.83	0.497772
4495.83	0.497284
4496.83	0.496765
4497.83	0.496307
4498.83	0.495941
4499.83	0.495544
4500.83	0.495178
4501.83	0.494873
4502.83	0.494568
4503.83	0.494293
4504.83	0.494019
4505.83	0.493805
4506.83	0.493561
4507.83	0.493317
4508.83	0.493134
4509.83	0.49295
4510.83	0.492889
4511.83	0.492706
4512.83	0.492554
4513.83	0.492401
4514.83	0.492249
4515.83	0.492126
4516.83	0.492035
4517.83	0.491943
4518.83	0.491821
4519.83	0.49176
4520.83	0.491669
4521.83	0.491577
4522.83	0.491486
4523.83	0.491394
4524.83	0.491333
4525.83	0.491272
4526.83	0.491211
4527.83	0.49115
4528.83	0.49115
4529.83	0.491119
4530.83	0.490936
4531.83	0.491028
4532.83	0.490997
4533.83	0.490875
4534.83	0.490845
4535.83	0.490814
4536.83	0.490784
4537.83	0.490753
4538.83	0.490753
4539.83	0.490784
4540.83	0.490601
4541.83	0.490692
4542.83	0.490753
4543.83	0.490753
4544.83	0.490692
4545.83	0.490692
4546.83	0.490723
4547.83	0.490692
4548.83	0.490723
4549.83	0.490417
4550.83	0.490417
4551.83	0.490387
4552.83	0.490326
4553.83	0.490265
4554.83	0.490326
4555.83	0.490265
4556.83	0.490265
4557.83	0.490265
4558.83	0.490265
4559.83	0.490234
4560.83	0.490173
4561.83	0.490173
4562.83	0.490204
4563.83	0.490173
4564.83	0.490204
4565.83	0.490173
4566.83	0.490143
4567.83	0.490173
4568.83	0.490204
4569.83	0.490204
4570.83	0.490173
4571.83	0.490234
4572.83	0.490204
4573.83	0.490204
4574.83	0.490234
4575.83	0.490234
4576.83	0.490234
4577.83	0.490204
4578.83	0.490204
4579.83	0.490204
4580.83	0.490204
4581.83	0.490112
4582.83	0.490021
4583.83	0.489868
4584.83	0.489838
4585.83	0.489807
4586.83	0.489777
4587.83	0.489777
4588.83	0.489838
4589.83	0.489838
4590.83	0.489838
4591.83	0.489868
4592.83	0.489838
4593.83	0.489899
4594.83	0.489899
4595.83	0.489929
4596.83	0.48996
4597.83	0.48999
4598.83	0.48999
4599.83	0.490021
4600.83	0.490051
4601.83	0.490051
4602.83	0.48999
4603.83	0.490082
4604.83	0.490051
4605.83	0.490051
4606.83	0.489929
4607.83	0.48996
4608.83	0.489868
4609.83	0.490051
4610.83	0.48999
4611.83	0.490021
4612.83	0.490082
4613.83	0.490112
4614.83	0.490112
4615.83	0.490112
4616.83	0.48996
4617.83	0.490051
4618.83	0.490051
4619.83	0.490082
4620.83	0.489807
4621.83	0.490051
4622.83	0.48999
4623.83	0.490051
4624.83	0.490021
4625.83	0.489899
4626.83	0.490021
4627.83	0.48996
4628.83	0.48999
4629.83	0.490021
4630.83	0.489899
4631.83	0.48999
4632.83	0.48996
4633.83	0.48996
4634.83	0.48999
4635.83	0.48996