File: Edgar/20240605/20240605/electrodeposition_pulsed_potential_20240605_A/data/OCP_1
Time (s)	WE(1).Potential (V)
2.01472	0.596008
3.01472	0.596008
4.01472	0.596008
5.01472	0.596313
6.01472	0.596313
7.01472	0.596313
8.01472	0.596313
9.01472	0.596313
10.0147	0.596619
11.0147	0.596619
12.0147	0.596619
13.0147	0.596924
14.0147	0.596924
15.0147	0.596924
16.0147	0.596924
17.0147	0.596924
18.0147	0.597229
19.0147	0.597229
20.0147	0.597229
21.0147	0.597229
22.0147	0.597229
23.0147	0.597534
24.0147	0.597534
25.0147	0.597534
26.0147	0.597534
27.0147	0.597839
28.0147	0.597839
29.0147	0.597839
30.0147	0.597839
31.0147	0.597839
32.0147	0.598145
33.0147	0.598145
34.0147	0.598145
35.0147	0.598145
36.0147	0.598145
37.0147	0.59845
38.0147	0.59845
39.0147	0.59845
40.0147	0.59845
41.0147	0.59845
42.0147	0.59845
43.0147	0.598755
44.0147	0.598755
45.0147	0.598755
46.0147	0.598755
47.0147	0.59906
48.0147	0.59906
49.0147	0.59906
50.0147	0.59906
51.0147	0.599365
52.0147	0.599365
53.0147	0.599365
54.0147	0.599365
55.0147	0.599365
56.0147	0.599365
57.0147	0.599365
58.0147	0.59967
59.0147	0.59967
60.0147	0.59967
61.0147	0.599976
62.0147	0.599976
63.0147	0.599976
64.0147	0.599976
65.0147	0.600281
66.0147	0.600281
67.0147	0.600281
68.0147	0.600586
69.0147	0.600586
70.0147	0.600586
71.0147	0.600586
72.0147	0.600586
73.0147	0.600891
74.0147	0.600891
75.0147	0.600891
76.0147	0.600891
77.0147	0.600891
78.0147	0.600891
79.0147	0.601196
80.0147	0.601196
81.0147	0.601196
82.0147	0.601196
83.0147	0.601196
84.0147	0.601501
85.0147	0.601501
86.0147	0.601501
87.0147	0.601501
88.0147	0.601807
89.0147	0.601807
90.0147	0.601807
91.0147	0.601807
92.0147	0.601807
93.0147	0.602112
94.0147	0.602112
95.0147	0.602112
96.0147	0.602112
97.0147	0.602112
98.0147	0.602112
99.0147	0.602112
100.015	0.602417
101.015	0.602417
102.015	0.602417
103.015	0.602417
104.015	0.602417
105.015	0.602722
106.015	0.602722
107.015	0.602722
108.015	0.602722
109.015	0.603027
110.015	0.603027
111.015	0.603027
112.015	0.603027
113.015	0.603027
114.015	0.603027
115.015	0.602722
116.015	0.602722
117.015	0.602722
118.015	0.602417
119.015	0.602417
120.015	0.602417
121.015	0.602417
122.015	0.602417
123.015	0.602417
124.015	0.602417
125.015	0.602417
126.015	0.602417
127.015	0.602417
128.015	0.602417
129.015	0.602417
130.015	0.602722
131.015	0.602722
132.015	0.602722
133.015	0.602722
134.015	0.602722
135.015	0.602722
136.015	0.602722
137.015	0.603027
138.015	0.603027
139.015	0.603027
140.015	0.603027
141.015	0.603333
142.015	0.603027
143.015	0.603333
144.015	0.603333
145.015	0.603333
146.015	0.603333
147.015	0.603333
148.015	0.603333
149.015	0.603333
150.015	0.603638
151.015	0.603638
152.015	0.603638
153.015	0.603638
154.015	0.603638
155.015	0.603943
156.015	0.603943
157.015	0.603943
158.015	0.603943
159.015	0.603943
160.015	0.603943
161.015	0.604248
162.015	0.604248
163.015	0.604248
164.015	0.604248
165.015	0.604248
166.015	0.604248
167.015	0.604553
168.015	0.604553
169.015	0.604553
170.015	0.604553
171.015	0.604553
172.015	0.604553
173.015	0.604858
174.015	0.604858
175.015	0.604858
176.015	0.605164
177.015	0.605164
178.015	0.604858
179.015	0.605164
180.015	0.605164
181.015	0.605164