File: Edgar/20240424/20240424/chronoamperommetry_steps/B/OCP_1
Time (s)	WE(1).Potential (V)
1.98776	0.155853
2.98776	0.155853
3.98776	0.155853
4.98776	0.155853
5.98776	0.155823
6.98776	0.155823
7.98776	0.155823
8.98776	0.155823
9.98776	0.155823
10.9878	0.155823
11.9878	0.155823
12.9878	0.155823
13.9878	0.155823
14.9878	0.155792
15.9878	0.155823
16.9878	0.155792
17.9878	0.155792
18.9878	0.155792
19.9878	0.155762
20.9878	0.155762
21.9878	0.155762
22.9878	0.155762
23.9878	0.155762
24.9878	0.155762
25.9878	0.155731
26.9878	0.155731
27.9878	0.155731
28.9878	0.155701
29.9878	0.155701
30.9878	0.155701
31.9878	0.155701
32.9878	0.155701
33.9878	0.155701
34.9878	0.155701
35.9878	0.155701
36.9878	0.155701
37.9878	0.155701
38.9878	0.155701
39.9878	0.15567
40.9878	0.15567
41.9878	0.15567
42.9878	0.15567
43.9878	0.15567
44.9878	0.15567
45.9878	0.15567
46.9878	0.15567
47.9878	0.15567
48.9878	0.15567
49.9878	0.15567
50.9878	0.15564
51.9878	0.15564
52.9878	0.15564
53.9878	0.15564
54.9878	0.15564
55.9878	0.155609
56.9878	0.155609
57.9878	0.155609
58.9878	0.155609
59.9878	0.155609
60.9878	0.155579