File: Edgar/20240424/20240424/chronoamperommetry_steps/B/OCP_3
Time (s)	WE(1).Potential (V)
681.554	0.767822
682.554	0.589905
683.554	0.443451
684.554	0.330353
685.554	0.255646
686.554	0.220795
687.554	0.204224
688.554	0.194122
689.554	0.18692
690.554	0.181335
691.554	0.176788
692.554	0.172943
693.554	0.169647
694.554	0.166718
695.554	0.164093
696.554	0.161713
697.554	0.159576
698.554	0.157562
699.554	0.155731
700.554	0.154022
701.554	0.152435
702.554	0.15094
703.554	0.149536
704.554	0.148193
705.554	0.146942
706.554	0.145752
707.554	0.144623
708.554	0.143555
709.554	0.142517
710.554	0.141541
711.554	0.140594
712.554	0.139679
713.554	0.138824
714.554	0.13797
715.554	0.137177
716.554	0.136383
717.554	0.135651
718.554	0.134949
719.554	0.134277
720.554	0.133575
721.554	0.132935
722.554	0.132294
723.554	0.131683
724.554	0.131104
725.554	0.130554
726.554	0.129974
727.554	0.129456
728.554	0.128906
729.554	0.128387
730.554	0.127899
731.554	0.127411
732.554	0.126953
733.554	0.126495
734.554	0.126068
735.554	0.125641
736.554	0.125214
737.554	0.124817
738.554	0.12439
739.554	0.124023
740.554	0.123596
741.554	0.12326
742.554	0.122864
743.554	0.122498
744.554	0.122162
745.554	0.121826
746.554	0.12149
747.554	0.121155
748.554	0.12085
749.554	0.120544
750.554	0.120239
751.554	0.119934
752.554	0.119659
753.554	0.119354
754.554	0.11908
755.554	0.118805
756.554	0.11853
757.554	0.118256
758.554	0.118011
759.554	0.117767
760.554	0.117523
761.554	0.117279
762.554	0.117035
763.554	0.116791
764.554	0.116577
765.554	0.116333
766.554	0.116119
767.554	0.115875
768.554	0.115662
769.554	0.115448
770.554	0.115234
771.554	0.115021
772.554	0.114838
773.554	0.114624
774.554	0.114441
775.554	0.114258
776.554	0.114075
777.554	0.113861
778.554	0.113708
779.554	0.113525
780.554	0.113342
781.554	0.113159
782.554	0.112976
783.554	0.112823
784.554	0.112671
785.554	0.112488
786.554	0.112335
787.554	0.112183
788.554	0.11203
789.554	0.111877
790.554	0.111725
791.554	0.111572
792.554	0.11142
793.554	0.111298
794.554	0.111145
795.554	0.111023
796.554	0.11087
797.554	0.110748
798.554	0.110626
799.554	0.110474
800.554	0.110382