File: Edgar/20240503/20240503/electrodeposition_pulsed_potential_20240503_B/pulses_0_to_1000.txt
Time (s)	WE(1).Potential (V)	WE(1).Current (A)
181.722	-0.698181	-0.00356934
186.082	0.524658	-7.50732e-06
190.402	0.524689	-9.765625E-06
194.742	-0.698181	-0.00338318
199.102	0.524658	-4.82178e-06
203.422	0.524628	-8.23975e-06
207.762	-0.69809	-0.00351715
212.122	0.524628	-5.40161e-06
216.442	0.524689	-8.17871e-06
220.782	-0.698151	-0.00356812
225.142	0.524658	-5.76782e-06
229.462	0.524658	-8.20923e-06
233.822	0.00135803	0.00185913
238.162	0.524658	-6.7749e-06
242.482	0.524628	-8.8501e-06
246.842	0.00121155	0.000245087
251.182	0.524628	-7.01904e-06
255.502	0.524719	-9.0332e-06
259.862	0.00118713	5.07507e-05
264.202	0.524689	-6.7749e-06
268.522	0.524689	-9.33838e-06
272.882	0.00119629	-5.37109e-06
277.222	0.524658	-7.50732e-06
281.542	0.524658	-9.0332e-06
285.922	0.524689	6.57959e-05
290.242	0.524689	-7.62939e-06
294.562	0.524567	-8.94165e-06
298.942	0.524597	2.14233e-05
303.262	0.524689	-7.75146e-06
307.582	0.524658	-9.09424e-06
311.962	0.524689	9.64355e-06
316.282	0.524597	-7.93457e-06
320.602	0.524628	-8.88062e-06
324.982	0.524689	4.3335e-06
329.302	0.524658	-7.65991e-06
333.622	0.524628	-8.66699e-06
338.002	0.524628	1.61743e-06
342.322	0.524597	-7.62939e-06
346.642	0.524658	-8.94165e-06
351.022	0.524689	-1.64795e-06
355.342	0.524689	-9.06372e-06
359.662	0.524658	-9.00269e-06
364.042	0.524658	-3.38745e-06
368.362	0.524689	-8.30078e-06
372.682	0.524689	-8.8501e-06
377.062	0.524658	-3.87573e-06
381.382	0.524628	-8.94165e-06
385.702	0.524658	-9.21631e-06
390.082	0.524597	-4.73022e-06
394.402	0.524658	-8.81958e-06
398.722	0.524597	-8.36182e-06
403.102	0.524567	-5.27954e-06
407.422	0.524689	-8.54492e-06
411.742	0.524658	-9.33838e-06
416.122	0.524689	-5.76782e-06
420.442	0.524628	-9.00269e-06
424.762	0.524628	-8.08716e-06
429.142	0.524658	-6.01196e-06
433.462	0.524658	-9.24683e-06
437.782	0.524597	-8.66699e-06
442.162	0.524628	-6.83594e-06
446.482	0.524658	-9.33838e-06
450.822	-0.697815	-0.0107422
455.182	0.524628	-6.7749e-06
459.502	0.524658	-8.57544e-06
463.842	-0.697937	-0.00728577
468.202	0.524628	-6.71387e-06
472.522	0.524597	-8.60596e-06
476.862	-0.697998	-0.00582581
481.222	0.524658	-7.62939e-06
485.542	0.524658	-9.21631e-06
489.882	-0.698059	-0.00506653
494.242	0.524597	-7.26318e-06
498.562	0.524567	-9.00269e-06
502.922	0.00102539	0.00846252
507.262	0.524658	-7.38525e-06
511.582	0.524628	-8.78906e-06
515.942	0.00124512	0.00424866
520.282	0.524628	-7.26318e-06
524.602	0.524689	-9.06372e-06
528.962	0.00131226	0.00169373
533.302	0.524628	-6.7749e-06
537.622	0.524658	-9.24683e-06
541.982	0.00127258	0.000598755
546.322	0.524658	-7.20215e-06
550.642	0.524658	-9.18579e-06
555.022	0.524658	0.000191071
559.342	0.524628	-7.99561e-06
563.662	0.524597	-9.18579e-06
568.042	0.524658	4.75769e-05
572.362	0.524689	-7.44629e-06
576.682	0.524658	-9.15527e-06
581.062	0.524597	2.41089e-05
585.382	0.524597	-7.26318e-06
589.702	0.524628	-9.3689e-06
594.082	0.524628	1.33667e-05
598.402	0.524658	-7.35474e-06
602.722	0.524658	-9.09424e-06
607.102	0.524689	7.50732e-06
611.422	0.524628	-7.04956e-06
615.742	0.524597	-8.60596e-06
620.122	0.524628	4.88281e-06
624.442	0.524597	-7.62939e-06
628.762	0.524658	-8.81958e-06
633.142	0.524689	2.31934e-06
637.462	0.524658	-8.27026e-06
641.782	0.524658	-9.15527e-06
646.162	0.524628	1.06812e-06
650.482	0.524597	-7.50732e-06
654.802	0.524597	-9.06372e-06
659.182	0.524658	-1.0376e-06
663.502	0.524658	-7.20215e-06
667.822	0.524628	-8.69751e-06
672.202	0.524658	-1.15967e-06
676.522	0.524628	-6.89697e-06
680.842	0.524628	-8.60596e-06
685.222	0.524658	-2.65503e-06
689.542	0.524628	-8.48389e-06
693.862	0.524689	-9.3689e-06
698.242	0.524628	-3.69263e-06
702.562	0.524658	-7.96509e-06
706.882	0.524658	-8.94165e-06
711.262	0.524567	-3.69263e-06
715.582	0.524597	-8.30078e-06
719.922	-0.697632	-0.0142609
724.282	0.524658	-4.73022e-06
728.602	0.524658	-7.84302e-06
732.942	-0.697876	-0.0103302
737.302	0.524658	-4.63867e-06
741.622	0.524658	-7.59888e-06
745.962	-0.697968	-0.00810852
750.322	0.524628	-5.09644e-06
754.642	0.524658	-8.54492e-06
758.982	-0.697998	-0.0068396
763.342	0.524658	-4.05884e-06
767.662	0.524658	-7.78198e-06
772.022	0.000970459	0.00956116
776.362	0.524658	-4.57764e-06
780.682	0.524658	-7.8125e-06
785.042	0.00115356	0.00616333
789.382	0.524597	-5.85937e-06
793.702	0.524628	-7.96509e-06
798.062	0.0012085	0.00377777
802.402	0.524658	-5.76782e-06
806.723	0.524658	-8.39233e-06
811.083	0.00125122	0.00209259
815.423	0.524597	-5.24902e-06
819.743	0.524628	-8.3313e-06
824.123	0.524902	0.00179199
828.443	0.524658	-6.04248e-06
832.763	0.524597	-8.42285e-06
837.143	0.524658	0.000116638
841.463	0.524658	-4.91333e-06
845.783	0.524597	-8.08716e-06
850.163	0.524628	5.4657e-05
854.483	0.524689	-6.19507e-06
858.803	0.524628	-8.54492e-06
863.183	0.524658	3.22571e-05
867.503	0.524658	-6.13403e-06
871.823	0.524628	-9.06372e-06
876.203	0.524658	2.22473e-05
880.523	0.524658	-6.86646e-06
884.843	0.524628	-9.97925e-06
889.223	0.524658	1.49841e-05
893.543	0.524628	-5.82886e-06
897.863	0.524628	-7.56836e-06
902.243	0.524628	1.13525e-05
906.563	0.524597	-5.92041e-06
910.883	0.524658	-7.99561e-06
915.263	0.524658	8.39233e-06
919.583	0.524658	-6.31714e-06
923.903	0.524597	-8.23975e-06
928.283	0.524597	6.22559e-06
932.603	0.524689	-5.70679e-06
936.923	0.524628	-8.42285e-06
941.303	0.524597	4.11987e-06
945.623	0.524658	-5.79834e-06
949.943	0.524628	-8.57544e-06
954.323	0.524567	2.74658e-06
958.643	0.524658	-5.88989e-06
962.963	0.524628	-8.27026e-06
967.343	0.524536	1.37329e-06
971.663	0.524658	-6.83594e-06
975.983	0.524689	-8.3313e-06
980.363	0.524628	3.05176e-07
984.683	0.524658	-7.01904e-06
989.023	-0.69754	-0.0164978
993.383	0.524658	-8.54492e-07
997.703	0.524597	-6.46973e-06
1002.04	-0.697723	-0.0125397
1006.4	0.524597	-1.12915e-06
1010.72	0.524628	-7.32422e-06
1015.06	-0.697845	-0.0101044
1019.42	0.524689	-2.19727e-06
1023.74	0.524597	-7.8125e-06
1028.08	-0.697876	-0.00848083
1032.44	0.524628	-2.62451e-06
1036.76	0.524658	-7.53784e-06
1041.12	0.000906372	0.00953674
1045.46	0.524658	-3.41797e-06
1049.78	0.524597	-6.86646e-06
1054.14	0.00114746	0.00675385
1058.48	0.524628	-3.78418e-06
1062.8	0.524628	-7.08008e-06
1067.16	0.00118713	0.00475342
1071.5	0.524628	-3.60107e-06
1075.82	0.524628	-7.14111e-06
1080.18	0.00125732	0.00315796
1084.52	0.524628	-4.57764e-06
1088.84	0.524628	-7.32422e-06
1093.22	0.524292	0.0100525
1097.54	0.524628	-4.88281e-06
1101.86	0.524658	-7.90405e-06
1106.24	0.524689	0.000339508
1110.56	0.524628	-4.11987e-06
1114.88	0.524689	-7.23267e-06
1119.26	0.524597	0.000105469
1123.58	0.524597	-4.02832e-06
1127.9	0.524658	-7.14111e-06
1132.28	0.524597	5.85327e-05
1136.6	0.524628	-4.79126e-06
1140.92	0.524628	-6.89697e-06
1145.3	0.524597	3.9093e-05
1149.62	0.524658	-3.96729e-06
1153.94	0.524597	-6.74438e-06
1158.32	0.524597	2.82593e-05
1162.64	0.524628	-4.69971e-06
1166.96	0.524597	-7.14111e-06
1171.34	0.524536	2.07214e-05
1175.66	0.524658	-5.34058e-06
1179.98	0.524628	-6.5918e-06
1184.36	0.524658	1.63269e-05
1188.68	0.524689	-5.95093e-06
1193	0.524658	-8.3313e-06
1197.38	0.524658	1.24512e-05
1201.7	0.524658	-5.18799e-06
1206.02	0.524658	-8.54492e-06
1210.4	0.524658	1.03149e-05
1214.72	0.524628	-5.79834e-06
1219.04	0.524658	-7.99561e-06
1223.42	0.524597	6.89697e-06
1227.74	0.524658	-6.16455e-06
1232.06	0.524689	-7.84302e-06
1236.44	0.524689	5.5542e-06
1240.76	0.524628	-5.18799e-06
1245.08	0.524628	-7.78198e-06
1249.46	0.524658	3.96729e-06
1253.78	0.524628	-4.85229e-06
1258.12	-0.697388	-0.0182678
1262.48	0.524628	3.66211e-06
1266.8	0.524658	-5.37109e-06
1271.14	-0.697601	-0.0141663
1275.5	0.524567	1.7395e-06
1279.82	0.524658	-5.34058e-06
1284.16	-0.697693	-0.0117096
1288.52	0.524628	1.5564e-06
1292.84	0.524628	-5.46265e-06
1297.18	-0.697845	-0.00994263
1301.54	0.524628	7.01904e-07
1305.86	0.524628	-6.31714e-06
1310.22	0.000912476	0.0091217
1314.56	0.524567	4.27246e-07
1318.88	0.524689	-4.97437e-06
1323.24	0.00111694	0.00681702
1327.58	0.524628	-7.32422e-07
1331.9	0.524689	-5.76782e-06
1336.26	0.00116272	0.00509918
1340.6	0.524628	-1.67847e-06
1344.92	0.524658	-6.83594e-06
1349.28	0.0012207	0.00369415
1353.62	0.524658	-2.47192e-06
1357.94	0.524689	-6.65283e-06
1362.32	0.524078	0.0121582
1366.64	0.524597	-3.11279e-06
1370.96	0.524628	-6.86646e-06
1375.34	0.52478	0.00525818
1379.66	0.524658	-2.2583e-06
1383.98	0.524658	-7.17163e-06
1388.36	0.524597	0.000200134
1392.68	0.524658	-3.11279e-06
1397	0.524658	-6.37817e-06
1401.38	0.524719	9.33228e-05
1405.7	0.524658	-3.11279e-06
1410.02	0.524658	-6.56128e-06
1414.4	0.524628	5.8197e-05
1418.72	0.524597	-3.08228e-06
1423.04	0.524658	-7.44629e-06
1427.42	0.524658	4.19006e-05
1431.74	0.524597	-3.44849e-06
1436.06	0.524628	-6.68335e-06
1440.44	0.524628	3.1189e-05
1444.76	0.524658	-5.0354e-06
1449.08	0.524689	-7.23267e-06
1453.46	0.524658	2.29187e-05
1457.78	0.524628	-3.63159e-06
1462.1	0.524689	-7.65991e-06
1466.48	0.524628	1.82495e-05
1470.8	0.524658	-4.36401e-06
1475.12	0.524628	-6.95801e-06
1479.5	0.524658	1.58386e-05
1481.68	0.524628	-7.2937e-06