File: Edgar/20240605/20240605/LSV_test_20240605_A/LSV_100mVps_1
Time (s)	WE(1).Current (A)	WE(1).Potential (V)
60.83	2.43835e-07	0.995789
60.9032	1.297e-07	0.989075
60.9765	1.36108e-07	0.983582
61.0497	7.96509e-08	0.974121
61.1229	3.71399e-08	0.968933
61.1962	4.78516e-08	0.959473
61.2694	-1.76697e-08	0.951843
61.3427	-1.47705e-08	0.94635
61.4159	-1.25122e-09	0.939026
61.4891	-3.48816e-08	0.932617
61.5624	-2.9541e-08	0.923462
61.6356	-7.55615e-08	0.917358
61.7089	-7.51343e-08	0.908203
61.7821	-5.94177e-08	0.902405
61.8554	-7.66296e-08	0.894165
61.9286	-7.18079e-08	0.888062
62.0018	-1.1792e-07	0.879517
62.0751	-9.8114e-08	0.873718
62.1483	-8.31909e-08	0.865173
62.2216	-1.06232e-07	0.856628
62.2948	-8.72498e-08	0.85144
62.3681	-1.23962e-07	0.843506
62.4413	-1.2616e-07	0.837402
62.5145	-1.00067e-07	0.829773
62.5878	-1.18256e-07	0.821228
62.661	-1.31531e-07	0.815125
62.7343	-1.46179e-07	0.808105
62.8075	-1.58447e-07	0.800476
62.8807	-1.13861e-07	0.791931
62.954	-1.52527e-07	0.785828
63.0272	-1.39954e-07	0.776978
63.1005	-1.56128e-07	0.770569
63.1737	-1.56708e-07	0.76355
63.247	-9.95178e-08	0.754089
63.3202	-1.78619e-07	0.747528
63.3934	-1.46332e-07	0.740814
63.4667	-1.65588e-07	0.732483
63.5399	-1.72394e-07	0.727386
63.6132	-1.23291e-07	0.718872
63.6864	-1.98853e-07	0.71106
63.7596	-1.67572e-07	0.704834
63.8329	-1.77399e-07	0.696594
63.9061	-1.97266e-07	0.690216
63.9794	-1.4682e-07	0.681824
64.0526	-2.11304e-07	0.674957
64.1259	-2.00623e-07	0.668243
64.1991	-1.89514e-07	0.661011
64.2723	-2.05475e-07	0.652954
64.3456	-1.6095e-07	0.645142
64.4188	-2.22046e-07	0.639191
64.4921	-2.02667e-07	0.630646
64.5653	-1.97479e-07	0.624634
64.6386	-2.24762e-07	0.616852
64.7118	-1.80847e-07	0.609222
64.785	-2.55524e-07	0.602661
64.8583	-2.0932e-07	0.595856
64.9315	-2.28424e-07	0.587158
65.0048	-2.12463e-07	0.579346
65.078	-1.97418e-07	0.57312
65.1512	-2.58942e-07	0.566223
65.2245	-2.39532e-07	0.557526
65.2977	-2.32849e-07	0.550232
65.371	-2.47681e-07	0.544067
65.4442	-2.25494e-07	0.53656
65.5175	-2.72217e-07	0.52829
65.5907	-2.59766e-07	0.522461
65.6639	-2.46948e-07	0.514221
65.7372	-2.86224e-07	0.507935
65.8104	-2.90833e-07	0.499481
65.8837	-3.05481e-07	0.491302
65.9569	-3.25317e-07	0.484619
66.0302	-2.88391e-07	0.478058
66.1034	-3.22266e-07	0.470703
66.1766	-3.20435e-07	0.461731
66.2499	-4.13208e-07	0.455078
66.3231	-3.69568e-07	0.447327
66.3964	-3.54614e-07	0.440002
66.4696	-4.27551e-07	0.433411
66.5428	-3.93982e-07	0.426605
66.6161	-4.48914e-07	0.417755
66.6893	-4.45557e-07	0.412201
66.7626	-4.22974e-07	0.404694
66.8358	-5.05676e-07	0.396088
66.9091	-5.10559e-07	0.388428
66.9823	-5.22766e-07	0.3828125
67.0555	-5.896e-07	0.375153
67.1288	-5.0293e-07	0.367096
67.202	-6.25305e-07	0.359467
67.2753	-6.17981e-07	0.3526
67.3485	-6.52771e-07	0.346649
67.4217	-6.96716e-07	0.339447
67.495	-6.65588e-07	0.330109
67.5682	-8.2428e-07	0.323517
67.6415	-8.02612e-07	0.31723
67.7147	-8.89587e-07	0.309204
67.788	-8.72498e-07	0.301239
67.8612	-9.00879e-07	0.293274
67.9344	-1.01685e-06	0.286224
68.0077	-1.07086e-06	0.280823
68.0809	-1.1203e-06	0.272522
68.1542	-1.19049e-06	0.265289
68.2274	-1.27533e-06	0.257141
68.3007	-1.40778e-06	0.251129
68.3739	-1.55365e-06	0.242462
68.4471	-1.60065e-06	0.237
68.5204	-1.79016e-06	0.228241
68.5936	-1.83594e-06	0.220612
68.6669	-2.10419e-06	0.215179
68.7401	-2.24274e-06	0.20636
68.8133	-2.41608e-06	0.20047
68.8866	-2.67365e-06	0.192505
68.9598	-2.86133e-06	0.18515
69.0331	-3.85437e-06	0.176941
69.1063	-4.17175e-06	0.171021
69.1796	-4.53796e-06	0.163239
69.2528	-5.0354e-06	0.154663
69.326	-5.41077e-06	0.14798
69.3993	-5.9906e-06	0.14151
69.4725	-6.47888e-06	0.133636
69.5458	-6.95801e-06	0.125366
69.619	-7.59583e-06	0.119781
69.6923	-8.17261e-06	0.112305
69.7655	-8.84094e-06	0.10498
69.8387	-9.55505e-06	0.0974121
69.912	-1.01837e-05	0.0886536
69.9852	-1.09619e-05	0.0822449
70.0585	-1.18134e-05	0.0756836
70.1317	-1.27502e-05	0.0675049
70.2049	-1.36963e-05	0.0610046
70.2782	-1.45966e-05	0.0527344
70.3514	-1.58173e-05	0.0466949
70.4247	-1.69373e-05	0.038269
70.4979	-1.8222e-05	0.031958
70.5712	-1.96472e-05	0.0229065
70.6444	-2.10052e-05	0.0167969
70.7176	-2.26349e-05	0.00985107
70.7909	-2.42706e-05	0.00161438
70.8641	-2.60651e-05	-0.00585632
70.9374	-2.80243e-05	-0.0128265
71.0106	-2.99286e-05	-0.019635
71.0838	-3.22357e-05	-0.0272675
71.1571	-3.44879e-05	-0.0349976
71.2303	-3.69385e-05	-0.0415771
71.3036	-3.95508e-05	-0.0500946
71.3768	-4.22363e-05	-0.0574036
71.4501	-4.51965e-05	-0.0643921
71.5233	-4.83093e-05	-0.0720825
71.5965	-5.14526e-05	-0.078064
71.6698	-5.49622e-05	-0.0861816
71.743	-5.85022e-05	-0.0930176
71.8163	-6.25E-05	-0.101257
71.8895	-6.64978e-05	-0.10733
71.9628	-7.07703e-05	-0.11499
72.036	-7.54395e-05	-0.123322
72.1092	-8.01086e-05	-0.129791
72.1825	-8.54187e-05	-0.136627
72.2557	-9.08813e-05	-0.144043
72.329	-9.66797e-05	-0.152435
72.4022	-0.000102997	-0.158783
72.4754	-0.00010968	-0.166199
72.5487	-0.000116943	-0.1745
72.6219	-0.000124542	-0.181671
72.6952	-0.000132477	-0.187805
72.7684	-0.000141052	-0.19577
72.8417	-0.000149841	-0.203339
72.9149	-0.000159058	-0.210724
72.9881	-0.000168701	-0.217072
73.0614	-0.000178741	-0.225189
73.1346	-0.000189484	-0.231598
73.2079	-0.000200775	-0.240112
73.2811	-0.000212738	-0.246307
73.3544	-0.000225616	-0.254242
73.4276	-0.000239044	-0.261993
73.5008	-0.000253754	-0.269348
73.5741	-0.000269196	-0.275238
73.6473	-0.000285645	-0.282806
73.7206	-0.000303314	-0.290771
73.7938	-0.000322052	-0.298737
73.867	-0.000342499	-0.30603
73.9403	-0.000364319	-0.312347
74.0135	-0.000387604	-0.320831
74.0868	-0.00041272	-0.327179
74.16	-0.000439484	-0.335663
74.2333	-0.000468384	-0.342712
74.3065	-0.000499268	-0.349121
74.3797	-0.000531616	-0.356171
74.453	-0.000566101	-0.364349
74.5262	-0.000602417	-0.372101
74.5995	-0.000640564	-0.378967
74.6727	-0.000680542	-0.386108
74.7459	-0.000722656	-0.393463
74.8192	-0.000767212	-0.401367
74.8924	-0.000813599	-0.408661
74.9657	-0.000863037	-0.414825
75.0389	-0.000915222	-0.422791
75.1122	-0.000970154	-0.430054
75.1854	-0.00102844	-0.437958
75.2586	-0.00108978	-0.445282
75.3319	-0.00115448	-0.451385
75.4051	-0.00122253	-0.458832
75.4784	-0.00129364	-0.467255
75.5516	-0.0013681	-0.473633
75.6249	-0.00144562	-0.481598
75.6981	-0.00152679	-0.489166
75.7713	-0.00161072	-0.495514
75.8446	-0.00169739	-0.503357
75.9178	-0.00178711	-0.510406
75.9911	-0.00187866	-0.517975
76.0643	-0.00197235	-0.524261
76.1375	-0.00206818	-0.532715
76.2108	-0.00216461	-0.539001
76.284	-0.00226227	-0.547363
76.3573	-0.00235992	-0.554993
76.4305	-0.00245728	-0.560791
76.5038	-0.00255493	-0.568024
76.577	-0.00265167	-0.575439
76.6502	-0.00274811	-0.583771
76.7235	-0.00284393	-0.590942
76.7967	-0.00293915	-0.597229
76.87	-0.00303467	-0.604767
76.9432	-0.00312988	-0.612488
77.0165	-0.00322571	-0.620575
77.0897	-0.00332214	-0.626923
77.1629	-0.00341919	-0.634155
77.2362	-0.00351746	-0.641052
77.3094	-0.00361633	-0.648621
77.3827	-0.00371613	-0.656647
77.4559	-0.00381561	-0.663116
77.5291	-0.00391388	-0.670624
77.6024	-0.00401154	-0.677643
77.6756	-0.00410583	-0.686035
77.7489	-0.00419647	-0.693329
77.8221	-0.00428253	-0.700714
77.8954	-0.00436371	-0.706635
77.9686	-0.0044397	-0.715332
78.0418	-0.0045105	-0.721527
78.1151	-0.00457642	-0.729767
78.1883	-0.00463776	-0.735687
78.2616	-0.00469482	-0.74353
78.3348	-0.00474854	-0.75119
78.408	-0.00479858	-0.758972
78.4813	-0.00484528	-0.768433
78.5545	-0.00488953	-0.775146
78.6278	-0.00493134	-0.78186
78.701	-0.0049707	-0.788574
78.7743	-0.00500824	-0.795593
78.8475	-0.00504395	-0.804138
78.9207	-0.005078125	-0.810242
78.994	-0.00511047	-0.819397
79.0672	-0.0051416	-0.825195
79.1405	-0.00517151	-0.833435
79.2137	-0.0052002	-0.840454
79.287	-0.00522797	-0.846252
79.3602	-0.00525421	-0.855408
79.4334	-0.00528015	-0.861206
79.5067	-0.00530457	-0.86853
79.5799	-0.00532837	-0.877686
79.6532	-0.00535126	-0.88501
79.7264	-0.00537323	-0.892334
79.7996	-0.00539459	-0.900269
79.8729	-0.00541504	-0.906372
79.9461	-0.00543488	-0.914307
80.0194	-0.0054541	-0.921631
80.0926	-0.00547272	-0.928345
80.1659	-0.00549042	-0.935059
80.2391	-0.00550781	-0.942993
80.3123	-0.00552429	-0.950623
80.3856	-0.00554047	-0.957031
80.4588	-0.00555573	-0.965271
80.5321	-0.00557068	-0.971375
80.6053	-0.00558472	-0.978699
80.6786	-0.00559845	-0.987549
80.7518	-0.00561188	-0.993042
80.825	-0.00562469	-1.00037