File: Edgar/20240605/20240605/LSV_test_20240605_A/LSV_1
Time (s)	WE(1).Current (A)	WE(1).Potential (V)
62.5444	4.30603e-08	0.99823
63.2769	3.34473e-08	0.990906
64.0093	2.38037e-08	0.981445
64.7417	1.76697e-08	0.976257
65.4741	1.43433e-08	0.966797
66.2066	9.94873e-09	0.959167
66.939	1.13525e-08	0.952148
67.6714	6.65283e-09	0.94635
68.4038	2.38037e-09	0.937805
69.1363	6.71387e-09	0.930786
69.8687	-1.92261e-09	0.924683
70.6011	-1.70898e-09	0.916748
71.3335	-1.58691e-09	0.908508
72.0659	3.66211e-09	0.902405
72.7984	6.34766e-09	0.895386
73.5308	4.60815e-09	0.887451
74.2632	2.0752e-09	0.879517
74.9956	-2.62451e-09	0.874329
75.7281	-4.08936e-09	0.865784
76.4605	-5.52368e-09	0.859375
77.1929	-3.93677e-09	0.851135
77.9253	-4.54712e-09	0.844421
78.6578	-5.52368e-09	0.836792
79.3902	-6.95801e-09	0.827942
80.1226	-4.48608e-09	0.820923
80.855	-4.60815e-09	0.815125
81.5874	-7.65991e-09	0.80719
82.3199	-9.00269e-09	0.799255
83.0523	-1.39771e-08	0.791321
83.7847	-1.36414e-08	0.783691
84.5171	-4.63867e-09	0.779114
85.2496	-3.38745e-09	0.770569
85.982	-3.69263e-09	0.762024
86.7144	-1.83105e-10	0.756836
87.4468	1.52588e-10	0.74881
88.1793	-6.19507e-09	0.741516
88.9117	-1.05286e-08	0.733551
89.6441	-1.28479e-08	0.726166
90.3765	-1.13831e-08	0.718506
91.1089	-1.26343e-08	0.711029
91.8414	-1.05591e-08	0.704834
92.5738	-1.19019e-08	0.697052
93.3062	-1.33057e-08	0.689148
94.0386	-1.03455e-08	0.683044
94.7711	-1.1261e-08	0.674286
95.5035	-1.41602e-08	0.668427
96.2359	-1.47095e-08	0.65976
96.9683	-1.31226e-08	0.651733
97.7008	-7.99561e-09	0.64621
98.4332	-4.82178e-09	0.63913
99.1656	-6.62231e-09	0.630096
99.898	-9.27734e-09	0.624023
100.63	-1.62964e-08	0.616821
101.363	-1.28479e-08	0.608704
102.095	-1.89514e-08	0.601746
102.828	-1.47095e-08	0.594971
103.56	-2.27356e-08	0.587616
104.293	-2.05994e-08	0.579102
105.025	-2.11487e-08	0.572083
105.757	-2.35291e-08	0.564178
106.49	-2.90222e-08	0.557129
107.222	-2.10571e-08	0.549347
107.955	-1.63269e-08	0.542603
108.687	-1.26953e-08	0.53479
109.42	-1.84326e-08	0.527405
110.152	-1.95923e-08	0.522095
110.884	-2.63672e-08	0.513031
111.617	-2.74048e-08	0.507385
112.349	-3.00293e-08	0.499237
113.082	-3.07312e-08	0.492706
113.814	-3.16467e-08	0.485199
114.546	-3.36304e-08	0.477875
115.279	-3.60718e-08	0.470795
116.011	-3.97644e-08	0.462463
116.744	-4.30908e-08	0.454987
117.476	-4.54407e-08	0.447968
118.209	-4.19006e-08	0.440094
118.941	-4.01001e-08	0.433502
119.673	-4.1626e-08	0.426941
120.406	-4.61426e-08	0.419586
121.138	-5.46875E-08	0.41156
121.871	-6.15845e-08	0.404999
122.603	-6.20728e-08	0.396118
123.336	-6.98853e-08	0.390442
124.068	-6.90613e-08	0.381409
124.8	-7.74536e-08	0.374451
125.533	-8.17261e-08	0.368469
126.265	-9.48181e-08	0.360107
126.998	-9.96704e-08	0.353821
127.73	-1.00433e-07	0.346252
128.463	-1.01807e-07	0.338684
129.195	-1.05072e-07	0.331879
129.927	-1.20239e-07	0.324432
130.66	-1.32874e-07	0.315887
131.392	-1.50665e-07	0.309479
132.125	-1.58356e-07	0.301208
132.857	-1.68854e-07	0.295288
133.589	-1.84937e-07	0.288086
134.322	-1.99615e-07	0.280884
135.054	-2.07581e-07	0.273285
135.787	-2.32391e-07	0.265533
136.519	-2.53448e-07	0.257843
137.252	-2.57751e-07	0.251953
137.984	-2.71027e-07	0.24292
138.716	-2.90955e-07	0.236694
139.449	-3.63464e-07	0.228058
140.181	-3.97949e-07	0.22113
140.914	-4.3396e-07	0.214539
141.646	-4.74548e-07	0.207031
142.379	-5.03235e-07	0.199097
143.111	-5.41382e-07	0.192474
143.843	-5.83496e-07	0.184113
144.576	-6.36597e-07	0.17807
145.308	-6.7749e-07	0.170319
146.041	-7.41882e-07	0.16394
146.773	-8.01697e-07	0.156464
147.506	-8.41675e-07	0.147339
148.238	-9.06372e-07	0.140411
148.97	-9.91821e-07	0.133545
149.703	-1.06934e-06	0.12558
150.435	-1.14166e-06	0.118774
151.168	-1.2323e-06	0.111023
151.9	-1.33606e-06	0.105286
152.632	-1.40747e-06	0.0968018
153.365	-1.50757e-06	0.0887756
154.097	-1.63147e-06	0.0820007
154.83	-1.73553e-06	0.075592
155.562	-1.83594e-06	0.0684814
156.295	-1.97205e-06	0.059906
157.027	-2.10114e-06	0.0542603
157.759	-2.20093e-06	0.0465179
158.492	-2.34406e-06	0.038678
159.224	-2.51831e-06	0.030542
159.957	-2.67151e-06	0.02453
160.689	-2.82745e-06	0.0158905
161.422	-3.0072e-06	0.00987854
162.154	-3.78723e-06	0.000927734
162.886	-4.04358e-06	-0.0053009
163.619	-4.31824e-06	-0.0128204
164.351	-4.62341e-06	-0.0202271
165.084	-4.93774e-06	-0.0275818
165.816	-5.27649e-06	-0.0343933
166.549	-5.62439e-06	-0.04104
167.281	-6.02112e-06	-0.0485352
168.013	-6.44531e-06	-0.0558167
168.746	-6.91528e-06	-0.0634155
169.478	-7.41272e-06	-0.0721436
170.211	-7.95898e-06	-0.079071
170.943	-8.55713e-06	-0.0865784
171.675	-9.2041e-06	-0.0937195
172.408	-9.90295e-06	-0.099884
173.14	-1.0675e-05	-0.107452
173.873	-1.15173e-05	-0.116364
174.605	-1.2439e-05	-0.122162
175.338	-1.34369e-05	-0.130402
176.07	-1.45325e-05	-0.137939
176.802	-1.57593e-05	-0.145172
177.535	-1.71112e-05	-0.150848
178.267	-1.8634e-05	-0.158142
179	-2.03491e-05	-0.166748
179.732	-2.23083e-05	-0.173065
180.465	-2.45026e-05	-0.181793
181.197	-2.69348e-05	-0.188782
181.929	-2.95135e-05	-0.194489
182.662	-3.21503e-05	-0.202515
183.394	-3.47626e-05	-0.210175
184.127	-3.73627e-05	-0.218445
184.859	-3.99506e-05	-0.225037
185.592	-4.2511e-05	-0.232239
186.324	-4.5105e-05	-0.240082
187.056	-4.77905e-05	-0.247681
187.789	-5.05981e-05	-0.254944
188.521	-5.34058e-05	-0.262207
189.254	-5.63354e-05	-0.268372
189.986	-5.94177e-05	-0.27594
190.718	-6.27136e-05	-0.284149
191.451	-6.61926e-05	-0.291443
192.183	-7.00378e-05	-0.297943
192.916	-7.421875E-05	-0.306274
193.648	-7.89185e-05	-0.312317
194.381	-8.4137e-05	-0.320831
195.113	-9.00269e-05	-0.32785
195.845	-9.66187e-05	-0.335632
196.578	-0.000104004	-0.342499
197.31	-0.000112244	-0.349152
198.043	-0.000121155	-0.35675
198.775	-0.000130707	-0.363434
199.508	-0.000140778	-0.370911
200.24	-0.000151306	-0.378204
200.972	-0.000162537	-0.385406
201.705	-0.000174835	-0.392822
202.437	-0.000188965	-0.400055
203.17	-0.000206329	-0.408264
203.902	-0.000229095	-0.415253
204.635	-0.000260162	-0.421722
205.367	-0.000303558	-0.428986
206.099	-0.000364929	-0.437469
206.832	-0.000450867	-0.444153
207.564	-0.000567932	-0.45224
208.297	-0.000719604	-0.459106
209.029	-0.000902405	-0.46698
209.761	-0.00110596	-0.47403
210.494	-0.00131836	-0.480621
211.226	-0.00153107	-0.487823
211.959	-0.00173798	-0.496063
212.691	-0.00193573	-0.502625
213.424	-0.00212189	-0.509979
214.156	-0.00229584	-0.516876
214.888	-0.00245697	-0.524231
215.621	-0.00260681	-0.531555
216.353	-0.00274597	-0.538696
217.086	-0.00287628	-0.547089
217.818	-0.00299805	-0.553375
218.551	-0.00311218	-0.56189
219.283	-0.00321869	-0.568329
220.015	-0.00331757	-0.575806
220.748	-0.00340851	-0.58374
221.48	-0.00349152	-0.590393
222.213	-0.00356689	-0.597076
222.945	-0.00363495	-0.605164
223.678	-0.00369507	-0.611725
224.41	-0.00374908	-0.6203
225.142	-0.00379669	-0.626404
225.875	-0.00383881	-0.634003
226.607	-0.00387665	-0.641541
227.34	-0.00391174	-0.648895
228.072	-0.0039444	-0.656616
228.804	-0.00397644	-0.663727
229.537	-0.00400848	-0.671509
230.269	-0.00404144	-0.678162
231.002	-0.00407593	-0.685852
231.734	-0.00411255	-0.692291
232.467	-0.0041507	-0.699493
233.199	-0.00419037	-0.707703
233.931	-0.00423096	-0.713867
234.664	-0.00427216	-0.721497
235.396	-0.00431305	-0.728516
236.129	-0.00435333	-0.736603
236.861	-0.0043924	-0.743866
237.594	-0.00442963	-0.751343
238.326	-0.00446503	-0.759277
239.058	-0.00449829	-0.768127
239.791	-0.00452942	-0.773315
240.523	-0.00455811	-0.782166
241.256	-0.00458405	-0.7901
241.988	-0.00460785	-0.796204
242.721	-0.00462921	-0.805054
243.453	-0.00464905	-0.811462
244.185	-0.00466614	-0.818481
244.918	-0.00468109	-0.825195
245.65	-0.00469421	-0.832825
246.383	-0.00470551	-0.839539
247.115	-0.00471466	-0.846558
247.847	-0.00472229	-0.853577
248.58	-0.00472809	-0.862732
249.312	-0.00473114	-0.869141
250.045	-0.00473206	-0.877075
250.777	-0.00473022	-0.88501
251.51	-0.00472504	-0.891724
252.242	-0.00471588	-0.899658
252.974	-0.00470276	-0.906982
253.707	-0.00468536	-0.914001
254.439	-0.00466309	-0.921326
255.172	-0.00463562	-0.92865
255.904	-0.00460388	-0.936279
256.637	-0.00457031	-0.943604
257.369	-0.00453918	-0.950928
258.101	-0.00451935	-0.957947
258.834	-0.00451935	-0.964661
259.566	-0.00454468	-0.971069
260.299	-0.00459229	-0.979919
261.031	-0.00465363	-0.986938
261.764	-0.00471497	-0.993347
262.496	-0.0047641	-1.00098