File: Edgar/20240605/20240605/LSV_test_20240605_A/LSV_0p25mVps_1
Time (s)	WE(1).Current (A)	WE(1).Potential (V)
61.1085	5.77087e-07	0.998535
61.4014	5.15747e-07	0.990295
61.6944	4.73022e-07	0.982361
61.9874	4.26331e-07	0.975952
62.2803	3.96118e-07	0.966797
62.5733	3.59497e-07	0.961914
62.8663	3.39966e-07	0.954285
63.1592	3.07312e-07	0.94635
63.4522	2.84424e-07	0.937805
63.7452	2.6886e-07	0.930176
64.0381	2.5177e-07	0.924683
64.3311	2.46582e-07	0.914917
64.6241	2.19727e-07	0.908508
64.917	2.20947e-07	0.90271
65.21	2.02026e-07	0.895386
65.503	1.87683e-07	0.888672
65.7959	1.87073e-07	0.878296
66.0889	1.78833e-07	0.872192
66.3819	1.84326e-07	0.866699
66.6748	1.67542e-07	0.858154
66.9678	1.6449e-07	0.85144
67.2608	1.57166e-07	0.844727
67.5538	1.47095e-07	0.834656
67.8467	1.51062e-07	0.827942
68.1397	1.38855e-07	0.821838
68.4327	1.51367e-07	0.814209
68.7256	1.42822e-07	0.806885
69.0186	1.34888e-07	0.79834
69.3116	1.2146e-07	0.793457
69.6045	1.19324e-07	0.783997
69.8975	1.27563e-07	0.777283
70.1905	1.12915e-07	0.769043
70.4834	1.26038e-07	0.761719
70.7764	1.16577e-07	0.757141
71.0694	1.12915e-07	0.74823
71.3623	1.06812e-07	0.741333
71.6553	1.00403e-07	0.734314
71.9483	1.05286e-07	0.72522
72.2412	9.64355e-08	0.717743
72.5342	9.82971e-08	0.710571
72.8272	8.11157e-08	0.703125
73.1201	8.28552e-08	0.696075
73.4131	7.34863e-08	0.688293
73.7061	7.01904e-08	0.681427
73.999	8.04443e-08	0.673828
74.292	6.79932e-08	0.66687
74.585	7.66296e-08	0.660645
74.878	6.32019e-08	0.653015
75.1709	5.82581e-08	0.646271
75.4639	6.00586e-08	0.638214
75.7569	5.84412e-08	0.631775
76.0498	6.05774e-08	0.623352
76.3428	5.60913e-08	0.615723
76.6358	5.91431e-08	0.609253
76.9287	4.81567e-08	0.602753
77.2217	3.6499e-08	0.595459
77.5147	3.90625E-08	0.586792
77.8076	4.22668e-08	0.57901
78.1006	4.10461e-08	0.571564
78.3936	3.39661e-08	0.565613
78.6865	3.46069e-08	0.556915
78.9795	2.59094e-08	0.55072
79.2725	2.00806e-08	0.544067
79.5654	2.01416e-08	0.53537
79.8584	1.60522e-08	0.527679
80.1514	1.49841e-08	0.520294
80.4443	4.08936e-09	0.514587
80.7373	5.92041e-09	0.507324
81.0303	-5.859375E-09	0.499573
81.3232	-1.91956e-08	0.492615
81.6162	-6.74438e-09	0.485291
81.9092	-2.4353e-08	0.476593
82.2022	-1.20239e-08	0.470581
82.4951	-3.44543e-08	0.461517
82.7881	-4.29993e-08	0.455475
83.0811	-4.44946e-08	0.448914
83.374	-5.08118e-08	0.440216
83.667	-4.70581e-08	0.433655
83.96	-6.97021e-08	0.425629
84.2529	-8.08411e-08	0.418884
84.5459	-8.74023e-08	0.412354
84.8389	-9.45129e-08	0.405029
85.1318	-1.00281e-07	0.39621
85.4248	-1.13892e-07	0.388763
85.7178	-1.14532e-07	0.381592
86.0107	-1.38489e-07	0.375977
86.3037	-1.56586e-07	0.366974
86.5967	-1.57593e-07	0.360626
86.8896	-1.76514e-07	0.352753
87.1826	-1.7981e-07	0.346527
87.4756	-2.06635e-07	0.338898
87.7685	-2.25983e-07	0.332153
88.0615	-2.39746e-07	0.324188
88.3545	-2.56683e-07	0.318054
88.6474	-2.68616e-07	0.310028
88.9404	-2.98035e-07	0.301483
89.2334	-3.5675e-07	0.294983
89.5264	-3.91846e-07	0.286926
89.8193	-4.34875e-07	0.280396
90.1123	-4.47388e-07	0.272644
90.4053	-4.99878e-07	0.266144
90.6982	-5.26733e-07	0.258636
90.9912	-5.91125e-07	0.250275
91.2842	-6.52771e-07	0.242645
91.5771	-6.83594e-07	0.234985
91.8701	-7.48901e-07	0.228821
92.1631	-8.06885e-07	0.222168
92.456	-8.95996e-07	0.214905
92.749	-9.56421e-07	0.205811
93.042	-1.04004e-06	0.199402
93.3349	-1.13495e-06	0.192108
93.6279	-1.21704e-06	0.184784
93.9209	-1.3205e-06	0.178162
94.2138	-1.41083e-06	0.169952
94.5068	-1.54419e-06	0.163544
94.7998	-1.68365e-06	0.15564
95.0927	-1.79504e-06	0.1492
95.3857	-1.93146e-06	0.140472
95.6787	-2.06696e-06	0.13269
95.9716	-2.25555e-06	0.126801
96.2646	-2.42462e-06	0.119263
96.5576	-2.58636e-06	0.112671
96.8506	-2.77405e-06	0.105499
97.1435	-2.97821e-06	0.098175
97.4365	-3.83911e-06	0.0904541
97.7295	-4.14734e-06	0.0821533
98.0224	-4.48914e-06	0.0739136
98.3154	-4.85229e-06	0.0669556
98.6084	-5.21545e-06	0.0603638
98.9013	-5.6488e-06	0.052002
99.1943	-6.0791e-06	0.0465912
99.4873	-6.57654e-06	0.0391724
99.7802	-7.09229e-06	0.0312134
100.073	-7.63855e-06	0.023587
100.366	-8.24585e-06	0.0162567
100.659	-8.87756e-06	0.0088623
100.952	-9.59778e-06	0.00129089
101.245	-1.03363e-05	-0.0046936
101.538	-1.1142e-05	-0.0125671
101.831	-1.20209e-05	-0.0198364
102.124	-1.29547e-05	-0.0272858
102.417	-1.3974e-05	-0.0352325
102.71	-1.50635e-05	-0.0410889
103.003	-1.62598e-05	-0.0490631
103.296	-1.75507e-05	-0.0567017
103.589	-1.89209e-05	-0.0649109
103.882	-2.04285e-05	-0.0718994
104.175	-2.2052e-05	-0.078949
104.468	-2.3819e-05	-0.0849304
104.761	-2.57355e-05	-0.0919495
105.054	-2.77924e-05	-0.0992432
105.347	-3.00201e-05	-0.107056
105.64	-3.24066e-05	-0.114929
105.933	-3.50189e-05	-0.122101
106.226	-3.77869e-05	-0.129822
106.518	-4.07745e-05	-0.136841
106.811	-4.39758e-05	-0.143982
107.104	-4.73938e-05	-0.151489
107.397	-5.11169e-05	-0.159241
107.69	-5.50842e-05	-0.167175
107.983	-5.94177e-05	-0.17395
108.276	-6.40259e-05	-0.180603
108.569	-6.89087e-05	-0.189117
108.862	-7.39746e-05	-0.196411
109.155	-7.91626e-05	-0.202637
109.448	-8.46252e-05	-0.209839
109.741	-9.02405e-05	-0.217865
110.034	-9.60999e-05	-0.225159
110.327	-0.000102295	-0.232849
110.62	-0.000108734	-0.240173
110.913	-0.000115662	-0.24762
111.206	-0.000122955	-0.254883
111.499	-0.000130829	-0.262268
111.792	-0.000139252	-0.269226
112.085	-0.000148132	-0.275696
112.378	-0.000157806	-0.283356
112.671	-0.000168365	-0.291534
112.964	-0.000180023	-0.297455
113.257	-0.00019281	-0.30545
113.55	-0.000206909	-0.312622
113.843	-0.000222351	-0.319397
114.136	-0.000239319	-0.32724
114.429	-0.000257996	-0.333923
114.722	-0.000278412	-0.341278
115.015	-0.00030069	-0.348297
115.308	-0.000324829	-0.357208
115.601	-0.00035083	-0.363617
115.893	-0.000378845	-0.372192
116.186	-0.000408813	-0.379242
116.479	-0.000441406	-0.386902
116.772	-0.000476929	-0.393311
117.065	-0.000516357	-0.401459
117.358	-0.000560303	-0.408508
117.651	-0.000610657	-0.415009
117.944	-0.000668335	-0.423309
118.237	-0.000734253	-0.429535
118.53	-0.000809937	-0.438049
118.823	-0.000895691	-0.445465
119.116	-0.000991821	-0.451569
119.409	-0.00109863	-0.45993
119.702	-0.0012149	-0.466156
119.995	-0.00133942	-0.473114
120.288	-0.00146973	-0.481628
120.581	-0.0016037	-0.488159
120.874	-0.00173828	-0.496307
121.167	-0.00187256	-0.502563
121.46	-0.00200531	-0.510651
121.753	-0.00213623	-0.517639
122.046	-0.00226624	-0.525543
122.339	-0.00239563	-0.532959
122.632	-0.00252563	-0.539795
122.925	-0.00265686	-0.546997
123.218	-0.00278778	-0.553497
123.511	-0.00291718	-0.561737
123.804	-0.00304413	-0.568085
124.097	-0.00316711	-0.575897
124.39	-0.00328552	-0.583466
124.683	-0.00339966	-0.590057
124.975	-0.00350983	-0.597565
125.268	-0.00361511	-0.604614
125.561	-0.00371521	-0.61261
125.854	-0.00380981	-0.62027
126.147	-0.00389893	-0.626495
126.44	-0.00398224	-0.634186
126.733	-0.00405914	-0.64209
127.026	-0.00413025	-0.649048
127.319	-0.00419617	-0.655548
127.612	-0.00425659	-0.663849
127.905	-0.00431274	-0.670563
128.198	-0.00436523	-0.67749
128.491	-0.00441406	-0.685455
128.784	-0.00446045	-0.691925
129.077	-0.0045047	-0.70047
129.37	-0.00454681	-0.706665
129.663	-0.0045874	-0.714111
129.956	-0.00462708	-0.721619
130.249	-0.00466553	-0.72934
130.542	-0.00470306	-0.736969
130.835	-0.00473969	-0.744263
131.128	-0.0047757	-0.751648
131.421	-0.00481079	-0.760193
131.714	-0.00484436	-0.767517
132.007	-0.00487701	-0.774841
132.3	-0.00490845	-0.782166
132.593	-0.00493866	-0.788269
132.886	-0.00496735	-0.797119
133.179	-0.00499512	-0.804749
133.472	-0.00502136	-0.812073
133.765	-0.00504608	-0.816956
134.057	-0.00506958	-0.825195
134.35	-0.00509186	-0.832825
134.643	-0.00511261	-0.841064
134.936	-0.00513214	-0.846863
135.229	-0.00515045	-0.854797
135.522	-0.00516724	-0.861816
135.815	-0.0051828	-0.869141
136.108	-0.00519745	-0.876465
136.401	-0.00521057	-0.883179
136.694	-0.00522278	-0.892029
136.987	-0.00523346	-0.899353
137.28	-0.00524292	-0.906372
137.573	-0.00525146	-0.914612
137.866	-0.00525909	-0.9198
138.159	-0.0052652	-0.927429
138.452	-0.00527039	-0.935059
138.745	-0.00527405	-0.943604
139.038	-0.00527649	-0.950928
139.331	-0.00527802	-0.957642
139.624	-0.00527802	-0.964355
139.917	-0.00527649	-0.971069
140.21	-0.00527374	-0.979309
140.503	-0.00526947	-0.986023
140.796	-0.00526428	-0.993042
141.089	-0.00525818	-1.00067