File: Edgar/20240607/20240607/electrodeposition_pulsed_potential_20240607_D/OCP_1
Time (s)	WE(1).Potential (V)
2.05822	0.503235
3.05822	0.503845
4.05822	0.50415
5.05822	0.504456
6.05822	0.504761
7.05822	0.505371
8.05822	0.505676
9.05822	0.505981
10.0582	0.506287
11.0582	0.506592
12.0582	0.507202
13.0582	0.507507
14.0582	0.5078125
15.0582	0.508118
16.0582	0.508423
17.0582	0.508728
18.0582	0.509033
19.0582	0.509644
20.0582	0.509949
21.0582	0.510254
22.0582	0.510559
23.0582	0.510864
24.0582	0.511169
25.0582	0.511475
26.0582	0.51178
27.0582	0.512085
28.0582	0.51239
29.0582	0.512695
30.0582	0.513
31.0582	0.513306
32.0582	0.513611
33.0582	0.513916
34.0582	0.514221
35.0582	0.514526
36.0582	0.514832
37.0582	0.515137
38.0582	0.515442
39.0582	0.515442
40.0582	0.515747
41.0582	0.516052
42.0582	0.516357
43.0582	0.516663
44.0582	0.516968
45.0582	0.517273
46.0582	0.517578
47.0582	0.517883
48.0582	0.518188
49.0582	0.518494
50.0582	0.518494
51.0582	0.518799
52.0582	0.519104
53.0582	0.519409
54.0582	0.519714
55.0582	0.52002
56.0582	0.52002
57.0582	0.520325
58.0582	0.52063
59.0582	0.520935
60.0582	0.52124
61.0582	0.521545
62.0582	0.521545
63.0582	0.521851
64.0582	0.522156
65.0582	0.522461
66.0582	0.522766
67.0582	0.523071
68.0582	0.523376
69.0582	0.523682
70.0582	0.523987
71.0582	0.523987
72.0582	0.524292
73.0582	0.524597
74.0582	0.524902
75.0582	0.525208
76.0582	0.525513
77.0582	0.525513
78.0582	0.525818
79.0582	0.526123
80.0582	0.526428
81.0582	0.526733
82.0582	0.527039
83.0582	0.527039
84.0582	0.527344
85.0582	0.527649
86.0582	0.527954
87.0582	0.528259
88.0582	0.528259
89.0582	0.528564
90.0582	0.52887
91.0582	0.529175
92.0582	0.529175
93.0582	0.52948
94.0582	0.529785
95.0582	0.53009
96.0582	0.53009
97.0582	0.530396
98.0582	0.530701
99.0582	0.530701
100.058	0.531006
101.058	0.531311
102.058	0.531311
103.058	0.531616
104.058	0.531921
105.058	0.531921
106.058	0.531921
107.058	0.532227
108.058	0.532227
109.058	0.532532
110.058	0.532837
111.058	0.533142
112.058	0.533142
113.058	0.533447
114.058	0.533752
115.058	0.533752
116.058	0.534058
117.058	0.534363
118.058	0.534668
119.058	0.534668
120.058	0.534973
121.058	0.535278
122.058	0.535583
123.058	0.535583
124.058	0.535889
125.058	0.536194
126.058	0.536499
127.058	0.536499
128.058	0.536804
129.058	0.537109
130.058	0.537415
131.058	0.537415
132.058	0.53772
133.058	0.538025
134.058	0.53833
135.058	0.53833
136.058	0.538635
137.058	0.53894
138.058	0.53894
139.058	0.539246
140.058	0.539551
141.058	0.539551
142.058	0.539856
143.058	0.540161
144.058	0.540161
145.058	0.540466
146.058	0.540771
147.058	0.540771
148.058	0.541077
149.058	0.541382
150.058	0.541382
151.058	0.541687
152.058	0.541992
153.058	0.541992
154.058	0.542297
155.058	0.542603
156.058	0.542603
157.058	0.542908
158.058	0.543213
159.058	0.543213
160.058	0.543518
161.058	0.543518
162.058	0.543823
163.058	0.544128
164.058	0.544128
165.058	0.544434
166.058	0.544434
167.058	0.544739
168.058	0.545044
169.058	0.545044
170.058	0.545349
171.058	0.545349
172.058	0.545654
173.058	0.545959
174.058	0.545959
175.058	0.546265
176.058	0.546265
177.058	0.54657
178.058	0.54657
179.058	0.546875
180.058	0.54718
181.058	0.54718