File: Edgar/20240607/20240607/electrodeposition_pulsed_potential_20240607_D/OCP_3
Time (s)	WE(1).Potential (V)
3726.09	0.0238068
3727.09	0.0354767
3728.09	0.0464233
3729.09	0.0567627
3730.09	0.0665588
3731.09	0.0758362
3732.09	0.0846252
3733.09	0.0929565
3734.09	0.100861
3735.09	0.108368
3736.09	0.115509
3737.09	0.122284
3738.09	0.128723
3739.09	0.134857
3740.09	0.140717
3741.09	0.146301
3742.09	0.151611
3743.09	0.156677
3744.09	0.16153
3745.09	0.166168
3746.09	0.170624
3747.09	0.174896
3748.09	0.179016
3749.09	0.182922
3750.09	0.186737
3751.09	0.190399
3752.09	0.193939
3753.09	0.197357
3754.09	0.200653
3755.09	0.203857
3756.09	0.20697
3757.09	0.209991
3758.09	0.212952
3759.09	0.21582
3760.09	0.218628
3761.09	0.221344
3762.09	0.22403
3763.09	0.226654
3764.09	0.229218
3765.09	0.23175
3766.09	0.234253
3767.09	0.236694
3768.09	0.239136
3769.09	0.241516
3770.09	0.243866
3771.09	0.246185
3772.09	0.248505
3773.09	0.250793
3774.09	0.253052
3775.09	0.25531
3776.09	0.257538
3777.09	0.259766
3778.09	0.261993
3779.09	0.264221
3780.09	0.266449
3781.09	0.268677
3782.09	0.270905
3783.09	0.273132
3784.09	0.275391
3785.09	0.277649
3786.09	0.279907
3787.09	0.282196
3788.09	0.284485
3789.09	0.286804
3790.09	0.289154
3791.09	0.291504
3792.09	0.293915
3793.09	0.296356
3794.09	0.298828
3795.09	0.301331
3796.09	0.303864
3797.09	0.306427
3798.09	0.309052
3799.09	0.311707
3800.09	0.314423
3801.09	0.3172
3802.09	0.320007
3803.09	0.322876
3804.09	0.325836
3805.09	0.328827
3806.09	0.331879
3807.09	0.334991
3808.09	0.338165
3809.09	0.3414
3810.09	0.344666
3811.09	0.348022
3812.09	0.35141
3813.09	0.354858
3814.09	0.358337
3815.09	0.361847
3816.09	0.365387
3817.09	0.368958
3818.09	0.372559
3819.09	0.37616
3820.09	0.379791
3821.09	0.383453
3822.09	0.387085
3823.09	0.390747
3824.09	0.394409
3825.09	0.398102
3826.09	0.401764
3827.09	0.405457
3828.09	0.409149
3829.09	0.412872
3830.09	0.416595
3831.09	0.420349
3832.09	0.424103
3833.09	0.427856
3834.09	0.431641
3835.09	0.435455
3836.09	0.43927
3837.09	0.443115
3838.09	0.446991
3839.09	0.450867
3840.09	0.454742
3841.09	0.458649
3842.09	0.462585
3843.09	0.466492
3844.09	0.470428
3845.09	0.474335
3846.09	0.478271
3847.09	0.482147
3848.09	0.485992
3849.09	0.489807
3850.09	0.493561
3851.09	0.497284
3852.09	0.501099
3853.09	0.504761
3854.09	0.508118
3855.09	0.511475
3856.09	0.515137
3857.09	0.518188
3858.09	0.52124
3859.09	0.523987
3860.09	0.526428
3861.09	0.529175
3862.09	0.531616
3863.09	0.534363
3864.09	0.536499
3865.09	0.53894
3866.09	0.541382
3867.09	0.542908
3868.09	0.544434
3869.09	0.545654
3870.09	0.546875
3871.09	0.548096
3872.09	0.549316
3873.09	0.550232
3874.09	0.551453
3875.09	0.552368
3876.09	0.553284
3877.09	0.554199
3878.09	0.55481
3879.09	0.555725
3880.09	0.556641
3881.09	0.558472
3882.09	0.559998
3883.09	0.561218
3884.09	0.562439
3885.09	0.563049
3886.09	0.563965
3887.09	0.56488
3888.09	0.565491
3889.09	0.566711
3890.09	0.567932
3891.09	0.568542
3892.09	0.568542
3893.09	0.568237
3894.09	0.567932
3895.09	0.567932
3896.09	0.567627
3897.09	0.567627
3898.09	0.567627
3899.09	0.567627
3900.09	0.567627
3901.09	0.567932
3902.09	0.567932
3903.09	0.567932
3904.09	0.568237
3905.09	0.568237