File: Edgar/20240607/20240607/electrodeposition_pulsed_potential_20240607_D/pulses_2000_to_3000.txt
Time (s)	WE(1).Potential (V)	WE(1).Current (A)
1599.12	-0.69751	-0.02109375
1601.46	-0.000576782	0.00790405
1603.78	0.000665283	0.00439301
1606.12	-0.698944	-0.0186035
1608.46	8.54492e-05	0.00800781
1610.78	-0.000210571	0.00444427
1613.12	-0.697876	-0.018573
1615.46	0.000354004	0.00802307
1617.78	-0.000494385	0.00446625
1620.12	-0.697693	-0.0185638
1622.46	-0.000177002	0.00802612
1624.78	0.000698853	0.00446838
1627.12	-0.698608	-0.0185455
1629.46	0.000585937	0.00802612
1631.78	-0.000485229	0.00448639
1634.12	-0.698914	-0.0185333
1636.46	0.000378418	0.00801392
1638.78	-0.000466919	0.0044928
1641.12	-0.698822	-0.0185242
1643.46	0.000527954	0.00800171
1645.78	0.00065918	0.00449097
1648.12	-0.6987	-0.0185089
1650.46	0.000177002	0.00800171
1652.78	5.18799e-05	0.00450348
1655.12	-0.698975	-0.0184998
1657.46	0.000299072	0.00800171
1659.78	-0.000378418	0.00450897
1662.12	-0.697571	-0.0184998
1664.46	0.000338745	0.00800171
1666.78	0.000579834	0.00450592
1669.12	-0.697449	-0.0184875
1671.46	0.000564575	0.00798645
1673.78	-0.000488281	0.00451385
1676.12	-0.698944	-0.0184662
1678.46	-0.000488281	0.00796814
1680.78	3.96729e-05	0.00451752
1683.12	-0.699005	-0.0184479
1685.46	0.000543213	0.00796204
1687.78	0.000112915	0.00451111
1690.12	-0.699036	-0.0184387
1692.46	-0.000784302	0.00795288
1694.78	0.000634766	0.00451324
1697.12	-0.698212	-0.0184174
1699.46	-0.000701904	0.00793762
1701.78	-0.000183105	0.00452118
1704.12	-0.697845	-0.0183868
1706.46	-0.000784302	0.00791931
1708.78	0.000366211	0.00451416
1711.12	-0.697968	-0.0183624
1713.46	-0.000726318	0.00791016
1715.78	-0.000375366	0.00451813
1718.12	-0.698853	-0.0183411
1720.46	-0.000717163	0.00789185
1722.78	0.00027771	0.00451355
1725.12	-0.698761	-0.0183289
1727.46	3.05176e-06	0.00787659
1729.78	-0.000463867	0.00452087
1732.12	-0.698608	-0.0183289
1734.46	-2.44141e-05	0.00786438
1736.78	-0.00043335	0.00452576
1739.12	-0.698212	-0.0183105
1741.46	0.000595093	0.00787354
1743.78	-0.000521851	0.00452972
1746.12	-0.698364	-0.0183228
1748.46	-0.000479126	0.00786743
1750.78	0.000683594	0.00453125
1753.12	-0.698059	-0.0183105
1755.46	3.05176e-06	0.00785828
1757.78	0.000527954	0.00453339
1760.12	-0.69751	-0.0183105
1762.46	-0.000750732	0.00786133
1764.78	0.000579834	0.00453735
1767.12	-0.697632	-0.0183167
1769.46	-0.000793457	0.00786438
1771.78	-0.000476074	0.00454315
1774.12	-0.697693	-0.0183258
1776.46	0.000476074	0.00784607
1778.78	-0.000427246	0.00454865
1781.12	-0.698273	-0.0183319
1783.46	0.000460815	0.00785217
1785.78	-0.000488281	0.00454956
1788.12	-0.698761	-0.0182953
1790.46	-0.000701904	0.00784302
1792.78	-0.000500488	0.00455139
1795.12	-0.698059	-0.0182861
1797.46	-0.000549316	0.00782776
1799.78	-0.000186157	0.00455292
1802.12	-0.698578	-0.018277
1804.46	-0.000717163	0.00783081
1806.78	-0.000393677	0.00456085
1809.12	-0.699036	-0.0182739
1811.46	0.000491333	0.00783081
1813.78	0.000628662	0.0045639
1816.12	-0.698975	-0.0182861
1818.46	-0.000564575	0.00782776
1820.78	0.000296021	0.00457001
1823.12	-0.697723	-0.0183136
1825.46	-0.000741577	0.00783081
1827.78	-0.00057373	0.00457367
1830.12	-0.698395	-0.0183105
1832.46	0.000616455	0.00781555
1834.78	0.000195313	0.00457123
1837.12	-0.699097	-0.0183167
1839.46	0.000250244	0.00782471
1841.78	-0.000457764	0.00457733
1844.12	-0.698914	-0.0183105
1846.46	0.000543213	0.0078125
1848.78	0.000848389	0.00457458
1851.12	-0.698181	-0.0183044
1853.46	0.000164795	0.00780945
1855.78	0.000402832	0.00458069
1858.12	-0.697662	-0.0183014
1860.46	0.000259399	0.00778503
1862.78	2.74658e-05	0.00458466
1865.12	-0.697906	-0.0182922
1867.46	0.00062561	0.00779114
1869.78	-0.00039978	0.00458923
1872.12	-0.6987	-0.0182709
1874.46	-0.000653076	0.00779114
1876.78	-0.000424194	0.00459106
1879.12	-0.697662	-0.0182495
1881.46	-0.00072937	0.00776367
1883.78	-0.000393677	0.00458282
1886.12	-0.698883	-0.0182465
1888.46	-0.000738525	0.00775146
1890.78	0.000418091	0.00458069
1893.12	-0.698975	-0.0182434
1895.46	0.000531006	0.00774841
1897.78	-0.000115967	0.00458923
1900.12	-0.698853	-0.0182465
1902.46	-0.000735474	0.00774841
1904.78	0.000338745	0.00458893
1907.12	-0.699036	-0.0182434
1909.46	-0.000753784	0.00775146
1911.78	-6.10352e-06	0.00459351
1914.12	-0.69873	-0.0182343
1916.46	-0.000692749	0.00774841
1918.78	0.000738525	0.00459167
1921.12	-0.69812	-0.0182373
1923.46	0.000598145	0.00774231
1925.78	0.000234985	0.00460205
1928.12	-0.698975	-0.0182678
1930.46	-0.000640869	0.00774841
1932.78	0.00085144	0.00460724
1935.12	-0.697632	-0.018277
1937.46	-0.000759888	0.00775146
1939.78	-4.27246e-05	0.00462006
1942.12	-0.699036	-0.0182709
1944.46	0.000579834	0.00774841
1946.78	-0.000314331	0.00462769
1949.12	-0.698944	-0.0182465
1951.46	-8.54492e-05	0.00773315
1953.78	0.000552368	0.00462006
1956.12	-0.697998	-0.0182312
1958.46	-0.000296021	0.00772095
1960.78	-0.000500488	0.00463043
1963.12	-0.697662	-0.018219
1965.46	0.000646973	0.0077179
1967.78	0.000802612	0.00462433
1970.12	-0.697479	-0.0182037
1972.46	0.000445557	0.007724
1974.78	-0.000488281	0.00463043
1977.12	-0.698547	-0.0182159
1979.46	-0.000286865	0.00771179
1981.78	0.000622559	0.00462219
1984.12	-0.698761	-0.0182098
1986.46	-0.000576782	0.00770569
1988.78	-0.000564575	0.0046286
1991.12	-0.697723	-0.0182129
1993.46	-0.000335693	0.00768433
1995.78	1.2207e-05	0.00463043
1998.12	-0.698486	-0.0182129
2000.46	0.00055542	0.00769043
2002.78	0.000735474	0.00462769
2005.12	-0.698181	-0.0182068
2007.46	0	0.00767517
2009.78	-0.000527954	0.0046286
2012.12	-0.697815	-0.018219
2014.46	-0.000222778	0.00767212
2016.78	0.000634766	0.00462524
2019.12	-0.697815	-0.018222
2021.46	0.000537109	0.00767517
2023.78	-0.000518799	0.00463562
2026.12	-0.698456	-0.0182068
2028.46	-0.000338745	0.00766907
2030.78	0.000601196	0.00463928
2033.12	-0.697662	-0.0182068
2035.46	0.000357056	0.00767212
2037.78	-0.000543213	0.00464966
2040.12	-0.697693	-0.0182007
2042.46	0.000598145	0.00766296
2044.78	0.000817871	0.00464478
2047.12	-0.698792	-0.0181885
2049.46	0.000134277	0.00765381
2051.78	0.000872803	0.00464935
2054.12	-0.697632	-0.0181946
2056.46	0.000558472	0.00765991
2058.78	0.000695801	0.00465485
2061.12	-0.697723	-0.0181915
2063.46	-0.000177002	0.00766907
2065.78	0.000198364	0.004664
2068.12	-0.698822	-0.0181702
2070.46	0.000299072	0.00764465
2072.78	-0.000524902	0.00466766
2075.12	-0.699036	-0.0181732
2077.46	0.000567627	0.00764465
2079.78	-0.000588989	0.00466766
2082.12	-0.697815	-0.0181732
2084.46	0.000354004	0.00764771
2086.78	7.01904e-05	0.00467194
2089.12	-0.698669	-0.0181915
2091.46	0.000521851	0.00765076
2093.78	0.000933838	0.00466614
2096.12	-0.699097	-0.0181732
2098.46	-0.000247192	0.0076416
2100.78	0.000115967	0.00467529
2103.12	-0.698944	-0.0181732
2105.46	-0.000485229	0.00763245
2107.78	-3.35693e-05	0.00467987
2110.12	-0.698151	-0.0181702
2112.46	0.000363159	0.00763855
2114.78	-0.0003479	0.0046814
2117.12	-0.697571	-0.0181793
2119.46	0.000579834	0.00763245
2121.78	0.000402832	0.00468079
2124.12	-0.698914	-0.0181732
2126.46	0.000582886	0.0076355
2128.78	0.00015564	0.00468384
2131.12	-0.699097	-0.0181732
2133.46	9.76562e-05	0.0076355
2135.78	-0.000537109	0.00468994
2138.12	-0.697632	-0.0181793
2140.46	-0.000479126	0.00763855
2142.78	-0.000405884	0.00469299
2145.12	-0.698151	-0.0181946
2147.46	-5.18799e-05	0.0076416
2149.78	-0.000411987	0.00469482
2152.12	-0.697693	-0.0181824
2154.46	-0.000576782	0.00763245
2156.78	0.000354004	0.00469208
2159.12	-0.698944	-0.0181732
2161.46	0.000253296	0.00762939
2163.78	0.000323486	0.00469421
2166.12	-0.699036	-0.0181732
2168.46	0.000588989	0.00762024
2170.78	-0.000402832	0.00470581
2173.12	-0.698792	-0.0181732
2175.46	5.49316e-05	0.00761719
2177.78	0.000714111	0.00470001
2180.12	-0.697632	-0.0181732
2182.46	-0.000201416	0.00762329
2184.78	-0.000112915	0.0047113
2187.12	-0.699036	-0.018158
2189.46	0.000579834	0.00761719
2191.78	-0.000430298	0.00471313
2194.12	-0.698517	-0.018158
2196.46	-0.000827026	0.00761719
2198.78	-4.27246e-05	0.00471741
2201.12	-0.698578	-0.0181488
2203.46	-0.000216675	0.00760803
2205.78	0.000421143	0.00471832
2208.12	-0.698212	-0.0181549
2210.46	0.000460815	0.00760803
2212.78	0.000375366	0.00471741
2215.12	-0.697754	-0.018158
2217.46	1.83105e-05	0.00759888
2219.78	-4.27246e-05	0.00472137
2222.12	-0.698853	-0.0181549
2224.46	0.000546265	0.00760498
2226.78	-0.000558472	0.00473297
2229.12	-0.699097	-0.0181488
2231.46	-0.000256348	0.00760193
2233.78	-0.00022583	0.00473083
2236.12	-0.697693	-0.0181488
2238.46	-0.000222778	0.00758972
2240.78	-0.000543213	0.00473999
2243.12	-0.698883	-0.0181427
2245.46	9.15527e-05	0.00760193
2247.78	-0.000292969	0.00474335
2250.12	-0.697815	-0.0181458
2252.46	0.000531006	0.00758972
2254.78	-0.000271606	0.00474457
2257.12	-0.697754	-0.0181366
2259.46	0.000372314	0.00758972
2261.78	-0.000390625	0.00474396
2264.12	-0.698303	-0.0181274
2266.46	-0.000720215	0.00758972
2268.78	0.000396729	0.00474213
2271.12	-0.698944	-0.0181152
2273.46	0.000146484	0.00757751
2275.78	0.000119019	0.0047464
2278.12	-0.697601	-0.0181274
2280.46	0.000598145	0.00757751
2282.78	0.000466919	0.00474731
2285.12	-0.699036	-0.0181213
2287.46	0.000341797	0.00757141
2289.78	-0.000494385	0.00475281
2292.12	-0.698669	-0.0181122
2294.46	-0.000247192	0.00758057
2296.78	-0.000430298	0.00475403
2299.08	0.000540161	0.00312592