File: Edgar/20240607/20240607/electrodeposition_pulsed_potential_20240607_D/pulses_3000_to_4000.txt
Time (s)	WE(1).Potential (V)	WE(1).Current (A)
2307.86	-0.69754	-0.0212402
2310.2	-0.000527954	0.00736877
2312.52	0.000808716	0.00467621
2314.86	-0.698029	-0.0181519
2317.2	0.000592041	0.00751038
2319.52	-9.15527e-05	0.00473511
2321.86	-0.698425	-0.0181274
2324.2	-0.000762939	0.00753479
2326.52	0.000823975	0.0047406
2328.86	-0.697662	-0.0181183
2331.2	-0.000146484	0.00754089
2333.52	-0.000418091	0.00475647
2335.86	-0.698853	-0.018103
2338.2	-0.000314331	0.007547
2340.52	0.000738525	0.00475555
2342.86	-0.698944	-0.0180969
2345.2	0.000167847	0.00753174
2347.52	0.000732422	0.00475952
2349.86	-0.699127	-0.0180878
2352.2	0.00020752	0.00753479
2354.52	0.000857544	0.00476196
2356.86	-0.697632	-0.0180817
2359.2	0.000192261	0.00752563
2361.52	0.000698853	0.00476807
2363.86	-0.698181	-0.0180817
2366.2	0.000524902	0.00753479
2368.52	0.000753784	0.00476746
2370.86	-0.698303	-0.0180847
2373.2	0.000430298	0.00752258
2375.52	0.000634766	0.00477081
2377.86	-0.697693	-0.0180786
2380.2	-0.000656128	0.00752869
2382.52	0.000811768	0.00477325
2384.86	-0.698669	-0.0180695
2387.2	0.000338745	0.00752869
2389.52	0.000723267	0.00477386
2391.86	-0.699066	-0.0180756
2394.2	-0.000241089	0.00750732
2396.52	0.000405884	0.00477081
2398.86	-0.699005	-0.0180756
2401.2	-0.00071106	0.00751648
2403.52	0.000131226	0.00477356
2405.86	-0.698303	-0.0180786
2408.2	-0.000576782	0.00750214
2410.52	0.000616455	0.00476868
2412.86	-0.697723	-0.0180756
2415.2	-0.000158691	0.0075
2417.52	-0.000485229	0.00477936
2419.86	-0.698944	-0.0180634
2422.2	-0.000350952	0.00749878
2424.52	6.71387e-05	0.00478088
2426.86	-0.699005	-0.0180695
2429.2	-0.000585937	0.00750061
2431.52	-0.000460815	0.00478851
2433.86	-0.699036	-0.0180664
2436.2	-0.000604248	0.00750031
2438.52	0.000939941	0.00478455
2440.86	-0.699036	-0.0180573
2443.2	0.000201416	0.0074881
2445.52	-0.000436401	0.00479187
2447.86	-0.697906	-0.0180634
2450.2	0.000561523	0.00748535
2452.52	0.000805664	0.00478821
2454.86	-0.698151	-0.0180573
2457.2	0.000323486	0.0074884
2459.52	-0.000497437	0.00479431
2461.86	-0.69754	-0.0180573
2464.2	0.000723267	0.0074765
2466.52	-0.000601196	0.00479401
2468.86	-0.697601	-0.0180664
2471.2	-0.000585937	0.0074823
2473.52	0.000894165	0.00478821
2475.86	-0.698181	-0.0180511
2478.2	-0.000476074	0.00747894
2480.52	-0.00039978	0.00479736
2482.86	-0.697662	-0.0180542
2485.2	-0.00022583	0.00747345
2487.52	-0.000106812	0.00479828
2489.86	-0.697845	-0.0180695
2492.2	0.000741577	0.0074707
2494.52	-0.000250244	0.00480103
2496.86	-0.698273	-0.0180603
2499.2	-0.000515747	0.00747345
2501.52	0.000183105	0.00479828
2503.86	-0.698486	-0.0180725
2506.2	-0.000128174	0.00746643
2508.52	0.000421143	0.00478485
2510.86	-0.697601	-0.0180725
2513.2	0.000683594	0.00744141
2515.52	-0.000326538	0.00478394
2517.86	-0.698639	-0.0180664
2520.2	-0.00012207	0.00744751
2522.52	0.000894165	0.00478363
2524.86	-0.697571	-0.0180695
2527.2	0.00072937	0.00743713
2529.52	0.0003479	0.00478577
2531.86	-0.698883	-0.0180573
2534.2	-0.000643921	0.00744354
2536.52	0.00067749	0.0047876
2538.86	-0.698914	-0.0180511
2541.2	-0.000540161	0.00744141
2543.52	0.000842285	0.00479401
2545.86	-0.6987	-0.0180542
2548.2	3.66211e-05	0.0074408
2550.52	0.000271606	0.00480194
2552.86	-0.697815	-0.0180573
2555.2	0.000244141	0.00743958
2557.52	0.000674438	0.00480225
2559.86	-0.698975	-0.0180389
2562.2	0.000357056	0.00743378
2564.52	0.000878906	0.00480774
2566.86	-0.698456	-0.018045
2569.2	-0.00038147	0.00743866
2571.52	0.000927734	0.00481049
2573.86	-0.698456	-0.0180359
2576.2	-0.000357056	0.00743347
2578.52	-0.000640869	0.00482025
2580.86	-0.69812	-0.0180298
2583.2	0.00012207	0.00743103
2585.52	-6.71387e-05	0.00482452
2587.86	-0.697784	-0.0180115
2590.2	-5.18799e-05	0.00742676
2592.52	0.000796509	0.00481903
2594.86	-0.699036	-0.0180115
2597.2	-0.000335693	0.00743622
2599.52	0.000848389	0.00482422
2601.86	-0.697723	-0.0180206
2604.2	-0.000622559	0.00743378
2606.52	0.000588989	0.00482422
2608.86	-0.697815	-0.0180328
2611.2	0.000701904	0.00742462
2613.52	-0.000564575	0.00483276
2615.86	-0.697601	-0.0180359
2618.2	4.27246e-05	0.00741577
2620.52	-0.000387573	0.00483368
2622.86	-0.697754	-0.0180267
2625.2	-0.000610352	0.00741882
2627.52	-3.66211e-05	0.00482666
2629.86	-0.699097	-0.0180206
2632.2	0.000357056	0.00741394
2634.52	-0.000128174	0.00483459
2636.86	-0.698578	-0.0180267
2639.2	-1.83105e-05	0.0074173
2641.52	0.000592041	0.00483551
2643.86	-0.698181	-0.0180206
2646.2	-0.000579834	0.00742035
2648.52	0.0003479	0.00483734
2650.86	-0.698547	-0.0180145
2653.2	-0.000549316	0.00741882
2655.52	-0.000427246	0.00484772
2657.86	-0.699097	-0.0180145
2660.2	-0.000247192	0.00740936
2662.52	0.0003479	0.00484467
2664.86	-0.698425	-0.0180084
2667.2	-0.000579834	0.00741302
2669.52	0.000601196	0.00484772
2671.86	-0.698975	-0.0179993
2674.2	0.00027771	0.00740448
2676.52	0.000790405	0.00484924
2678.86	-0.698547	-0.0180084
2681.2	-1.83105e-05	0.00740784
2683.52	0.000787354	0.00485077
2685.86	-0.698334	-0.0179993
2688.2	-0.000427246	0.00741058
2690.52	0.000726318	0.00485321
2692.86	-0.698822	-0.0179962
2695.2	0.00085144	0.00740021
2697.52	3.05176e-06	0.00486084
2699.86	-0.697968	-0.0180023
2702.2	-0.000604248	0.00740631
2704.52	0.000131226	0.00486084
2706.86	-0.699127	-0.0179871
2709.2	0.000830078	0.00739746
2711.52	-0.000531006	0.00487427
2713.86	-0.698517	-0.017984
2716.2	0.000738525	0.00739594
2718.52	-0.000274658	0.00486938
2720.86	-0.6987	-0.017984
2723.2	0.000695801	0.00739258
2725.52	-0.000540161	0.00487701
2727.86	-0.698151	-0.017981
2730.2	0.000558472	0.00739319
2732.52	0.000579834	0.00487061
2734.86	-0.697632	-0.017984
2737.2	0.000357056	0.00739532
2739.52	-0.000509644	0.00487793
2741.86	-0.697632	-0.0179871
2744.2	0.000738525	0.0073877
2746.52	0.000314331	0.00487976
2748.86	-0.697906	-0.017984
2751.2	-0.000149536	0.00738708
2753.52	-0.00032959	0.00488861
2755.86	-0.697937	-0.0179962
2758.2	-0.000140381	0.00739563
2760.52	4.27246e-05	0.00488312
2762.86	-0.698853	-0.0179871
2765.2	0.000131226	0.00738647
2767.52	-0.000341797	0.00489014
2769.86	-0.698273	-0.017981
2772.2	0.0006073	0.00738495
2774.52	0.000164795	0.00488434
2776.86	-0.697693	-0.0179901
2779.2	0.000305176	0.00737701
2781.52	-5.49316e-05	0.00488647
2783.86	-0.698944	-0.017984
2786.2	-0.000637817	0.00738617
2788.52	0.000796509	0.00488556
2790.86	-0.697876	-0.017984
2793.2	-0.000616455	0.0073819
2795.52	-0.000479126	0.00489197
2797.86	-0.698853	-0.0179718
2800.2	-0.000585937	0.00737671
2802.52	0.000595093	0.00488403
2804.86	-0.697632	-0.0179779
2807.2	0.000598145	0.00736389
2809.52	-0.00050354	0.00489166
2811.86	-0.698822	-0.0179749
2814.2	-0.000369263	0.00736908
2816.52	0.000363159	0.00488464
2818.86	-0.697968	-0.0179657
2821.2	-0.000262451	0.00735992
2823.52	0.000869751	0.00488678
2825.86	-0.697632	-0.0179657
2828.2	0.000610352	0.00734833
2830.52	0.000494385	0.00488342
2832.86	-0.697693	-0.0179535
2835.2	-0.000482178	0.00735168
2837.52	0.000268555	0.00488678
2839.86	-0.697906	-0.0179504
2842.2	-0.000460815	0.00734619
2844.52	0.000619507	0.00488831
2846.86	-0.69809	-0.0179382
2849.2	-0.00032959	0.00734344
2851.52	-4.88281e-05	0.00489258
2853.86	-0.69873	-0.0179352
2856.2	-0.000473022	0.007341
2858.52	-0.000262451	0.00489838
2860.86	-0.697845	-0.0179382
2863.2	-0.000506592	0.00733978
2865.52	-0.000180054	0.00490265
2867.86	-0.698761	-0.0179352
2870.2	-3.66211e-05	0.00733673
2872.53	-0.000558472	0.0049054
2874.87	-0.698639	-0.0179413
2877.21	-0.000463867	0.00733612
2879.53	-0.000140381	0.0048996
2881.87	-0.698059	-0.0179169
2884.21	0.000588989	0.00732422
2886.53	0.000619507	0.00489685
2888.87	-0.698517	-0.0179138
2891.21	-0.000448608	0.00732635
2893.53	4.88281e-05	0.00490051
2895.87	-0.698212	-0.0178986
2898.21	-2.74658e-05	0.00731293
2900.53	-0.000128174	0.00490753
2902.87	-0.697571	-0.0179016
2905.21	0.000286865	0.00731232
2907.53	-0.000646973	0.00490723
2909.87	-0.698914	-0.0178802
2912.21	-0.000259399	0.00730438
2914.53	0.000787354	0.00490021
2916.87	-0.697998	-0.0178864
2919.21	0.000714111	0.00729523
2921.53	-0.000421143	0.00490356
2923.87	-0.698761	-0.0178619
2926.21	-0.000640869	0.00729889
2928.53	0.000952148	0.0048996
2930.87	-0.698883	-0.0178741
2933.21	0.000302124	0.00729187
2935.53	0.000457764	0.00490479
2937.87	-0.697784	-0.0178711
2940.21	-0.000656128	0.00729675
2942.53	0.000738525	0.00490265
2944.87	-0.699097	-0.0178711
2947.21	-0.000558472	0.00729675
2949.53	-9.46045e-05	0.00491516
2951.87	-0.697906	-0.0178619
2954.21	0.000714111	0.00728455
2956.53	-0.000558472	0.00491577
2958.87	-0.697693	-0.0178711
2961.21	0.000552368	0.00729279
2963.53	0.000814819	0.00491119
2965.87	-0.699036	-0.0178711
2968.21	-0.000579834	0.00729523
2970.53	-0.00010376	0.00492065
2972.87	-0.698914	-0.017868
2975.21	0.000448608	0.00728149
2977.53	-0.000552368	0.00492279
2979.87	-0.699036	-0.0178711
2982.21	-0.000616455	0.00729156
2984.53	-0.000509644	0.00492493
2986.87	-0.698853	-0.0178528
2989.21	9.76562e-05	0.00727753
2991.53	-0.000527954	0.00492371
2993.87	-0.697784	-0.0178619
2996.21	0.000308228	0.007276
2998.53	0.000454712	0.00492157
3000.87	-0.698395	-0.0178558
3003.21	-0.000405884	0.00727966
3005.53	-0.000219727	0.00492798
3007.83	0.000622559	0.00350861