File: Edgar/20240607/20240607/electrodeposition_pulsed_potential_20240607_D/pulses_0_to_1000.txt
Time (s)	WE(1).Potential (V)	WE(1).Current (A)
181.635	-0.699463	-0.00305206
183.975	-0.000170898	0.000173492
186.295	0.0006073	-8.71582e-05
188.635	-0.698822	-0.00839233
190.975	-9.15527e-06	0.00115021
193.295	0.000549316	-0.000236359
195.635	-0.698914	-0.0110901
197.975	0.000634766	0.00388336
200.295	-4.88281e-05	-0.00024823
202.635	-0.698334	-0.0125885
204.975	-9.76562e-05	0.00574799
207.295	0.00071106	-0.000232391
209.635	-0.698151	-0.0135468
211.975	-0.000241089	0.00685028
214.295	0.000204468	-0.00017807
216.635	-0.698822	-0.0142426
218.975	-0.000143433	0.00753479
221.295	0.000152588	-9.11865e-05
223.635	-0.698944	-0.01474
225.975	3.05176e-06	0.00796814
228.295	-0.000283813	1.61438e-05
230.635	-0.698059	-0.0151245
232.975	-0.000570679	0.00825195
235.295	0.000720215	0.000118988
237.635	-0.698547	-0.0154236
239.975	-0.000341797	0.00846252
242.295	0.000393677	0.000224457
244.635	-0.698853	-0.0156799
246.975	9.76562e-05	0.00861816
249.295	-0.000280762	0.0003237
251.635	-0.697815	-0.015918
253.975	-0.000701904	0.00875854
256.295	7.01904e-05	0.000405609
258.635	-0.699066	-0.0160828
260.975	-0.000604248	0.00884705
263.295	-0.000473022	0.000490295
265.635	-0.699158	-0.0162354
267.975	9.76562e-05	0.00890808
270.295	0.000860596	0.000560303
272.635	-0.698853	-0.0163208
274.975	0.000149536	0.0089386
277.295	0.000442505	0.00063385
279.635	-0.698822	-0.0164246
281.975	-0.000195313	0.00896301
284.295	0.000643921	0.000699463
286.635	-0.698547	-0.0165283
288.975	0.000521851	0.00900574
291.295	-0.000119019	0.000767517
293.635	-0.698792	-0.016626
295.975	-0.000680542	0.00904236
298.295	0.000546265	0.000821838
300.635	-0.697815	-0.0167267
302.975	4.88281e-05	0.00907288
305.295	0.000527954	0.000882568
307.635	-0.698853	-0.0168091
309.975	-0.000506592	0.00909119
312.295	0.000119019	0.000945129
314.635	-0.697998	-0.0168945
316.975	-0.000326538	0.0091217
319.295	-0.000180054	0.00101135
321.635	-0.698792	-0.0169708
323.975	-0.000698853	0.00916748
326.295	0.000256348	0.00107544
328.635	-0.697998	-0.0170593
330.975	-0.000390625	0.00917664
333.295	0.000875854	0.00113831
335.635	-0.697662	-0.0171265
337.975	-0.000701904	0.00921936
340.295	-0.000363159	0.00121338
342.635	-0.697754	-0.0171936
344.975	0.000253296	0.00923157
347.295	0.000650024	0.00126648
349.635	-0.697784	-0.0172577
351.975	0.000518799	0.00923767
354.295	0.000854492	0.00132446
356.635	-0.698944	-0.0173096
358.975	-0.000131226	0.00923462
361.295	-0.000454712	0.00138275
363.635	-0.698944	-0.0173676
365.975	0.000491333	0.00924072
368.295	9.76562e-05	0.00142822
370.635	-0.698914	-0.0174225
372.975	-6.10352e-06	0.00922852
375.295	0.000109863	0.00147583
377.635	-0.698334	-0.0174744
379.975	0.000488281	0.00922546
382.295	-1.83105e-05	0.00152588
384.635	-0.698364	-0.0175446
386.975	-0.000637817	0.00923157
389.295	-3.66211e-05	0.00157654
391.635	-0.698822	-0.0175873
393.975	-0.000631714	0.00922852
396.295	-0.000192261	0.00162811
398.635	-0.699005	-0.0176361
400.975	0.000402832	0.00922241
403.295	4.57764e-05	0.0016745
405.635	-0.698761	-0.0176727
407.975	0.000149536	0.00921326
410.295	0.000424194	0.00171692
412.635	-0.697845	-0.0177216
414.975	0.00039978	0.00921936
417.295	0.000259399	0.00177094
419.635	-0.698395	-0.0177582
421.975	0.00027771	0.00921326
424.295	0.000189209	0.00182251
426.635	-0.697968	-0.0177948
428.975	0.000354004	0.00921021
431.295	0.000268555	0.00187012
433.635	-0.698669	-0.0178253
435.975	0.000387573	0.00921631
438.295	0.000604248	0.00191895
440.635	-0.698792	-0.017868
442.975	0.00022583	0.00921021
445.295	0.000494385	0.00197083
447.635	-0.698029	-0.0178925
449.975	0.000357056	0.00921326
452.295	-3.35693e-05	0.00201752
454.635	-0.697754	-0.017926
456.975	-0.000308228	0.00920105
459.295	0.00072937	0.00205597
461.635	-0.69873	-0.0179504
463.975	-0.000311279	0.00920105
466.295	-7.32422e-05	0.00210114
468.635	-0.69873	-0.0179871
470.975	-0.000250244	0.00918579
473.295	0.000100708	0.00213898
475.635	-0.698181	-0.0180267
477.975	-0.000387573	0.00918884
480.295	-0.000402832	0.00217621
482.635	-0.697845	-0.0180511
484.975	-0.000259399	0.00917664
487.295	0.000201416	0.00221283
489.635	-0.697845	-0.0180756
491.975	7.93457e-05	0.00916138
494.295	-0.000411987	0.0022525
496.635	-0.698944	-0.0181213
498.975	-0.000582886	0.00917358
501.295	0.000802612	0.00228058
503.635	-0.697784	-0.0181854
505.975	0.000201416	0.00917664
508.295	0.000518799	0.00231812
510.635	-0.699005	-0.0182373
512.975	-0.000735474	0.00920105
515.295	-0.000366211	0.00236267
517.635	-0.698883	-0.0183044
519.975	0.000268555	0.009198
522.295	-0.000402832	0.00239716
524.635	-0.698242	-0.0183533
526.975	-0.000119019	0.009198
529.295	0.000784302	0.00242218
531.635	-0.69809	-0.0183716
533.975	-0.000491333	0.00918884
536.295	-0.000378418	0.0024649
538.635	-0.6987	-0.0183899
540.975	-0.000695801	0.00917664
543.295	0.000759888	0.0024884
545.635	-0.698029	-0.0184113
547.975	0.000360107	0.00914612
550.295	0.000280762	0.00252136
552.635	-0.698425	-0.0184021
554.975	-0.000570679	0.00914001
557.295	-0.000463867	0.00255493
559.635	-0.698761	-0.018396
561.975	-0.00055542	0.00910645
564.295	0.000448608	0.00258087
566.635	-0.697632	-0.018399
568.975	0.000234985	0.00908813
571.295	0.000808716	0.002612
573.635	-0.697662	-0.0184479
575.975	-0.000656128	0.00911255
578.295	0.000930786	0.00264648
580.635	-0.697693	-0.0185028
582.975	0.000289917	0.00913391
585.295	2.74658e-05	0.00268829
587.635	-0.697662	-0.0185577
589.975	-0.000402832	0.00913696
592.295	0.000311279	0.00271606
594.635	-0.69873	-0.018573
596.975	0.000125122	0.00913391
599.295	-3.05176e-05	0.00275452
601.635	-0.6987	-0.0185913
603.975	-0.000726318	0.00914307
606.295	-0.000411987	0.00278564
608.635	-0.698944	-0.0186035
610.975	-0.000634766	0.00913696
613.295	0.00083313	0.00280884
615.635	-0.698914	-0.0186157
617.975	0.000558472	0.00912476
620.295	0.000567627	0.00284302
622.635	-0.697998	-0.018634
624.975	-0.000616455	0.0091217
627.295	0.000860596	0.00286835
629.635	-0.698547	-0.0186401
631.975	-0.00067749	0.0091095
634.295	-0.000152588	0.00290497
636.635	-0.698456	-0.0186493
638.975	0.000244141	0.00910034
641.295	0.000842285	0.00292542
643.635	-0.698303	-0.0186676
645.975	-0.000216675	0.00908508
648.295	-0.000515747	0.00295868
650.635	-0.698822	-0.0186798
652.975	-0.000756836	0.00908508
655.295	0.00065918	0.00297821
657.635	-0.698853	-0.0186768
659.975	0.00027771	0.00907288
662.295	0.000665283	0.00300446
664.635	-0.698914	-0.0186951
666.975	-0.000732422	0.00906982
669.295	0.000708008	0.00302948
671.636	-0.697968	-0.018692
673.976	-0.00085144	0.00905151
676.296	0.000311279	0.0030603
678.636	-0.698029	-0.0187012
680.976	0.000241089	0.00903625
683.296	0.000204468	0.00307831
685.636	-0.698486	-0.0187103
687.976	-0.000692749	0.0090271
690.296	0.000405884	0.00309998
692.636	-0.69812	-0.0187012
694.976	0.000408936	0.00900269
697.296	-0.000189209	0.00312958
699.636	-0.698029	-0.0187103
701.976	-0.000756836	0.00900269
704.296	-0.000366211	0.00314911
706.636	-0.698792	-0.0187164
708.976	-2.44141e-05	0.00899048
711.296	-0.000143433	0.00317505
713.636	-0.698395	-0.0187195
715.976	0.000524902	0.00896912
718.296	0.000140381	0.0031955
720.636	-0.698761	-0.0187195
722.976	0.000509644	0.00895996
725.296	-0.00032959	0.00321716
727.636	-0.697754	-0.0187286
729.976	0.000369263	0.00895691
732.296	0.00065918	0.00323029
734.636	-0.697632	-0.0187225
736.976	0.000442505	0.0089325
739.296	-0.000161743	0.0032605
741.636	-0.698334	-0.0187347
743.976	0.000454712	0.00892029
746.296	-0.000448608	0.00328278
748.636	-0.697693	-0.0187317
750.976	0.00032959	0.00891418
753.296	0.000253296	0.00329895
755.636	-0.698669	-0.0187256
757.976	-6.40869e-05	0.00890808
760.296	-0.000430298	0.00331787
762.636	-0.699005	-0.0187439
764.976	-0.00020752	0.00888367
767.296	2.74658e-05	0.00333984
769.636	-0.697723	-0.0187531
771.976	-0.000592041	0.00889587
774.296	0.000402832	0.00335602
776.636	-0.698639	-0.0187653
778.976	0.000335693	0.00888977
781.296	0.00065918	0.00337402
783.636	-0.698822	-0.0187805
785.976	0.000256348	0.00887756
788.296	-0.000268555	0.00340027
790.636	-0.698395	-0.0187805
792.976	0.000387573	0.00887451
795.296	0.000280762	0.00341736
797.636	-0.698792	-0.0187805
799.976	-0.000439453	0.00887756
802.296	-0.000109863	0.00343353
804.636	-0.698425	-0.0187988
806.976	-0.000360107	0.00887146
809.296	0.000268555	0.00345215
811.636	-0.697632	-0.0187897
813.976	-0.000738525	0.00884094
816.296	0.000665283	0.00346802
818.636	-0.698761	-0.0187836
820.976	-0.00065918	0.00884399
823.296	0.000265503	0.00349121
825.636	-0.698761	-0.0187927
827.976	0.000210571	0.00883179
830.296	0.000445557	0.00350555
832.636	-0.69812	-0.0187866
834.976	0.000430298	0.00881348
837.296	0.000796509	0.00351776
839.636	-0.698273	-0.0187836
841.976	0.000427246	0.00880432
844.296	-0.000512695	0.00354126
846.636	-0.697662	-0.0187927
848.976	0.000506592	0.00879517
851.296	-0.00032959	0.00355621
853.636	-0.698059	-0.0188019
855.976	3.05176e-05	0.00879211
858.296	0.000198364	0.00356628
860.636	-0.698822	-0.0187958
862.976	0.000500488	0.00877075
865.296	3.05176e-06	0.0035791
867.636	-0.698669	-0.0188202
869.976	0.000534058	0.0087616
872.296	-0.000311279	0.00359863
874.636	-0.698853	-0.0188324
876.976	-3.05176e-06	0.0087677
879.296	0.000131226	0.00360596
881.596	4.27246e-05	0.00137787