File: Edgar/20240607/20240607/electrodeposition_pulsed_potential_20240607_D/pulses_1000_to_2000.txt
Time (s)	WE(1).Potential (V)	WE(1).Current (A)
890.124	-0.697571	-0.0202148
892.464	0.000454712	0.0085968
894.784	0.000613403	0.00354797
897.124	-0.697754	-0.0188568
899.464	-0.000671387	0.00869141
901.784	0.000497437	0.00361084
904.124	-0.698029	-0.0188385
906.464	7.93457e-05	0.00870361
908.784	-0.00017395	0.0036441
911.124	-0.697876	-0.0188263
913.464	-0.000125122	0.00870972
915.784	0.000350952	0.00366211
918.124	-0.698486	-0.0188232
920.464	-9.15527e-06	0.00871887
922.784	0.000888062	0.00368439
925.124	-0.698212	-0.0188202
927.464	0.000247192	0.00869751
929.784	-5.18799e-05	0.00370575
932.124	-0.698334	-0.0188232
934.464	0.000509644	0.00869751
936.784	-0.000299072	0.00372375
939.124	-0.69873	-0.018811
941.464	0.000247192	0.00868835
943.784	-6.40869e-05	0.00373322
946.124	-0.697601	-0.018811
948.464	-0.000442505	0.00869446
950.784	-0.000335693	0.00374847
953.124	-0.698944	-0.0187988
955.464	0.000134277	0.00866699
957.784	0.000686646	0.00375519
960.124	-0.697754	-0.0188049
962.464	-0.000723267	0.00866394
964.784	0.000247192	0.00376892
967.124	-0.698883	-0.0187927
969.464	-0.000231934	0.00866089
971.784	0.000466919	0.00378387
974.124	-0.698303	-0.0187958
976.464	-0.000476074	0.00863953
978.784	0.000656128	0.0037912
981.124	-0.698425	-0.0187927
983.464	-0.000836182	0.00863953
985.784	-0.000204468	0.00381409
988.124	-0.698517	-0.0187866
990.464	0.000631714	0.00863037
992.784	-0.00039978	0.00382202
995.124	-0.697937	-0.0187866
997.464	0.000415039	0.00861206
999.784	-0.00043335	0.00383789
1002.12	-0.698273	-0.0187744
1004.46	0.000567627	0.00861206
1006.78	0.00050354	0.00384613
1009.12	-0.698883	-0.0187683
1011.46	-0.000762939	0.00860596
1013.78	0.00072937	0.00385498
1016.12	-0.698914	-0.0187775
1018.46	-0.000219727	0.0085907
1020.78	0.000177002	0.00387054
1023.12	-0.698914	-0.0187714
1025.46	0.000158691	0.0085907
1027.78	0.000286865	0.00388428
1030.12	-0.698975	-0.0187805
1032.46	0.000167847	0.00859375
1034.78	-0.000262451	0.00390198
1037.12	-0.698822	-0.0188019
1039.46	0.000448608	0.00859985
1041.78	-0.000100708	0.00391205
1044.12	-0.698395	-0.0188232
1046.46	0.000164795	0.00858765
1048.78	0.000808716	0.00391876
1051.12	-0.697723	-0.0188324
1053.46	-0.000244141	0.0085907
1055.78	0.000665283	0.00393097
1058.12	-0.698273	-0.0188354
1060.46	-0.000323486	0.0085968
1062.78	-0.000460815	0.00394745
1065.12	-0.697601	-0.0188385
1067.46	0.000396729	0.00858459
1069.78	-0.000299072	0.00395599
1072.12	-0.698456	-0.0188324
1074.46	-0.000167847	0.0085907
1076.78	-0.000296021	0.00396606
1079.12	-0.69809	-0.0188416
1081.46	0.000415039	0.00857544
1083.78	0.000631714	0.0039743
1086.12	-0.698547	-0.0188446
1088.46	0.000531006	0.00856628
1090.78	9.46045e-05	0.00399048
1093.12	-0.697662	-0.0188354
1095.46	-0.000576782	0.00856018
1097.78	-0.000436401	0.00400116
1100.12	-0.698608	-0.0188232
1102.46	-0.000476074	0.00852966
1104.78	-0.000280762	0.00400726
1107.12	-0.697723	-0.0188293
1109.46	-0.00062561	0.00853577
1111.78	0.000350952	0.00401062
1114.12	-0.698364	-0.0188049
1116.46	0.000430298	0.0085083
1118.78	0.000717163	0.00402008
1121.12	-0.698486	-0.018811
1123.46	0.000234985	0.00851135
1125.78	-0.000436401	0.00403595
1128.12	-0.697571	-0.0188232
1130.46	-0.000704956	0.00851746
1132.78	0.000491333	0.00404266
1135.12	-0.698242	-0.018808
1137.46	0.000262451	0.00850525
1139.78	0.000784302	0.00404694
1142.12	-0.69754	-0.0188171
1144.46	-0.000643921	0.00849915
1146.78	0.000442505	0.00404785
1149.12	-0.697723	-0.0188141
1151.46	-3.96729e-05	0.00847473
1153.78	-1.83105e-05	0.00405518
1156.12	-0.698486	-0.0188049
1158.46	-0.000610352	0.00846863
1160.78	-0.000296021	0.00407013
1163.12	-0.697571	-0.018808
1165.46	-0.000671387	0.00845642
1167.78	-0.000354004	0.00407928
1170.12	-0.698578	-0.018808
1172.46	0.000476074	0.00844421
1174.78	0.000183105	0.00408508
1177.12	-0.697815	-0.0187836
1179.46	-0.000445557	0.00844421
1181.78	9.15527e-06	0.00409637
1184.12	-0.697693	-0.0187775
1186.46	-0.000167847	0.00842896
1188.78	0.000469971	0.00410919
1191.12	-0.698578	-0.0187744
1193.46	-0.000552368	0.00843506
1195.78	8.23975e-05	0.00412231
1198.12	-0.699005	-0.0187561
1200.46	-0.000515747	0.0084259
1202.78	-0.000421143	0.00413361
1205.12	-0.698395	-0.0187439
1207.46	-0.000619507	0.0084198
1209.78	0.000219727	0.00414185
1212.12	-0.698944	-0.0187653
1214.46	-0.000299072	0.0084137
1216.78	0.000308228	0.00414978
1219.12	-0.697876	-0.0187531
1221.46	0.00039978	0.00841675
1223.78	0.000387573	0.00415741
1226.12	-0.69751	-0.0187622
1228.46	0.000466919	0.00840759
1230.78	-3.96729e-05	0.00416809
1233.12	-0.697601	-0.0187531
1235.46	0.000164795	0.00840454
1237.78	-0.000445557	0.0041806
1240.12	-0.697571	-0.0187531
1242.46	0.000213623	0.00838623
1244.78	-0.000231934	0.00418427
1247.12	-0.698364	-0.0187378
1249.46	0.000558472	0.00837402
1251.78	-2.44141e-05	0.00418854
1254.12	-0.698456	-0.0187256
1256.46	-0.00071106	0.00837097
1258.78	0.000772095	0.00419312
1261.12	-0.698273	-0.0187195
1263.46	-0.000479126	0.00836182
1265.78	0.000839233	0.00419678
1268.12	-0.698944	-0.0187103
1270.46	0.000448608	0.00834656
1272.78	-0.000396729	0.00421082
1275.12	-0.697906	-0.0187073
1277.46	-0.000540161	0.00833435
1279.78	0.000314331	0.0042099
1282.12	-0.697693	-0.0187134
1284.46	0.000149536	0.0083374
1286.78	0.000585937	0.00421326
1289.12	-0.697876	-0.0187042
1291.46	-3.05176e-06	0.00831299
1293.78	-0.00055542	0.00422974
1296.12	-0.698303	-0.0186981
1298.46	-0.000100708	0.00830688
1300.78	0.000875854	0.00422913
1303.12	-0.698242	-0.0186798
1305.46	0.000564575	0.00830688
1307.78	0.000228882	0.00423737
1310.12	-0.698944	-0.0186737
1312.46	-0.000317383	0.00828552
1314.78	0.000762939	0.00423676
1317.12	-0.698608	-0.0186646
1319.46	-0.000247192	0.00827026
1321.78	0.000741577	0.00424164
1324.12	-0.698181	-0.0186523
1326.46	6.10352e-06	0.00826111
1328.78	0.000515747	0.004245
1331.12	-0.699005	-0.018631
1333.46	0.000292969	0.0082428
1335.78	0.000668335	0.00424988
1338.12	-0.699036	-0.0186188
1340.46	0.000518799	0.00823364
1342.78	-0.000424194	0.00426086
1345.12	-0.698669	-0.0186096
1347.46	-0.000445557	0.00822449
1349.78	-0.000137329	0.00426392
1352.12	-0.698242	-0.0186005
1354.46	-0.000115967	0.00820923
1356.78	0.000186157	0.00426178
1359.12	-0.698669	-0.0186066
1361.46	-0.000738525	0.00820618
1363.78	-9.15527e-06	0.00426453
1366.12	-0.698486	-0.0185913
1368.46	0.000561523	0.008203125
1370.78	-0.0006073	0.00428192
1373.12	-0.697845	-0.0186157
1375.46	0.000408936	0.00820923
1377.78	-0.000299072	0.00428894
1380.12	-0.697693	-0.018631
1382.46	0.000473022	0.00819702
1384.78	0.000570679	0.00429077
1387.12	-0.697571	-0.018634
1389.46	-0.000650024	0.00820923
1391.78	0.000137329	0.00430634
1394.12	-0.698792	-0.0186401
1396.46	-0.000595093	0.00821838
1398.78	2.74658e-05	0.00431763
1401.12	-0.697968	-0.0186768
1403.46	0.000286865	0.00822754
1405.78	-0.000387573	0.00433258
1408.12	-0.698944	-0.0186798
1410.46	-0.000686646	0.0082428
1412.78	-0.000488281	0.00433838
1415.12	-0.697693	-0.0187134
1417.46	0.000509644	0.00823975
1419.78	-0.000393677	0.00434784
1422.12	-0.698853	-0.0187012
1424.46	-0.000192261	0.00822754
1426.78	0.000396729	0.00434937
1429.12	-0.698975	-0.0186951
1431.46	0.000552368	0.00821838
1433.78	0.000799561	0.00435272
1436.12	-0.697693	-0.0187073
1438.46	0.000363159	0.00822144
1440.78	0.000689697	0.00436157
1443.12	-0.698303	-0.0187103
1445.46	4.88281e-05	0.00821228
1447.78	0.000109863	0.00436737
1450.12	-0.69754	-0.0186981
1452.46	0.000134277	0.00822144
1454.78	-1.83105e-05	0.00437408
1457.12	-0.69809	-0.0187042
1459.46	-0.000286865	0.00821838
1461.78	3.96729e-05	0.00438568
1464.12	-0.698914	-0.018692
1466.46	-0.000567627	0.00819092
1468.78	0.000567627	0.00438629
1471.12	-0.697906	-0.0186951
1473.46	0.000631714	0.00819397
1475.78	0.000744629	0.0043869
1478.12	-0.698212	-0.0186859
1480.46	-0.000778198	0.00817871
1482.78	0.000784302	0.00439117
1485.12	-0.697845	-0.0186646
1487.46	0.000445557	0.0081665
1489.78	-0.000115967	0.00440247
1492.12	-0.697723	-0.0186646
1494.46	0.000228882	0.0081604
1496.78	4.27246e-05	0.00440643
1499.12	-0.697845	-0.0186584
1501.46	0.000579834	0.00815125
1503.78	0.000808716	0.00440216
1506.12	-0.698242	-0.0186432
1508.46	0.000650024	0.00814819
1510.78	-0.000454712	0.00441681
1513.12	-0.698944	-0.0186218
1515.46	0.000576782	0.00813599
1517.78	0.000323486	0.00441376
1520.12	-0.697906	-0.0186005
1522.46	-0.0003479	0.00815125
1524.78	-0.00045166	0.00442505
1527.12	-0.699005	-0.0186249
1529.46	-0.000762939	0.00813599
1531.78	0.000369263	0.00442291
1534.12	-0.698822	-0.0186066
1536.46	-0.000772095	0.00812378
1538.78	-0.000161743	0.00442719
1541.12	-0.698944	-0.0186035
1543.46	-0.000735474	0.00811157
1545.78	0.000717163	0.00443024
1548.12	-0.698425	-0.0186066
1550.46	-0.0006073	0.00809631
1552.78	0.000106812	0.0044397
1555.12	-0.697632	-0.0185913
1557.46	-0.000363159	0.00809937
1559.79	0.000369263	0.00443848
1562.13	-0.697662	-0.0185699
1564.47	-0.000701904	0.00808105
1566.79	-0.00043335	0.00444763
1569.13	-0.697632	-0.0185699
1571.47	-0.000216675	0.008078
1573.79	-0.000109863	0.0044455
1576.13	-0.697815	-0.0185577
1578.47	-0.000741577	0.0080658
1580.79	-9.76562e-05	0.0044455
1583.13	-0.698914	-0.0185516
1585.47	-0.000604248	0.00805054
1587.79	0.000720215	0.0044516
1590.09	-4.88281e-05	0.00253632