File: Edgar/20230626/20230626/electrodeposition_prussian_blue/voltametry_sample_D/voltametria_antes_de_tratamiento/OCP_1
Time (s)	WE(1).Potential (V)
9.06588	0.794067
9.16588	0.794067
9.26588	0.794067
9.36588	0.794067
9.46588	0.794067
9.56588	0.794067
9.66588	0.794067
9.76588	0.794067
9.86588	0.794067