File: Edgar/20230626/20230626/electrodeposition_prussian_blue/voltametry_sample_D/voltametria_antes_de_tratamiento/OCP_3
Time (s)	WE(1).Potential (V)
17.6388	0.793762
17.7388	0.793762
17.8388	0.793762
17.9388	0.793762
18.0388	0.793762
18.1388	0.793762
18.2388	0.793762
18.3388	0.793762
18.4388	0.793762