File: Edgar/20240607/20240607/electrodeposition_pulsed_potential_20240607_B/pulses_1000_to_2000.txt
Time (s)	WE(1).Potential (V)	WE(1).Current (A)
890.148	-0.697632	-0.019696
892.488	0.000531006	0.00903015
894.808	0.000811768	0.00311188
897.148	-0.698975	-0.0187683
899.488	3.35693e-05	0.00912476
901.808	0.000872803	0.00317596
904.148	-0.698425	-0.0187744
906.488	0.000717163	0.00912476
908.808	0.000970459	0.00321411
911.148	-0.699066	-0.0187531
913.488	-0.00015564	0.00911865
915.808	-9.46045e-05	0.00324249
918.148	-0.698761	-0.0187469
920.488	0.000622559	0.00911255
922.808	-0.000326538	0.00327271
925.148	-0.697937	-0.0187653
927.488	0.000640869	0.0091095
929.808	0.000900269	0.00328461
932.148	-0.697632	-0.0187561
934.488	-0.000488281	0.00909424
936.808	0.000360107	0.00331055
939.148	-0.698883	-0.0187531
941.488	0.000234985	0.00907898
943.808	3.05176e-06	0.00333496
946.148	-0.698822	-0.0187561
948.488	0.000674438	0.00907898
950.808	0.000634766	0.00334503
953.148	-0.699005	-0.0187531
955.488	-0.000567627	0.00906982
957.808	0.000756836	0.00335846
960.148	-0.697479	-0.0187592
962.488	1.52588e-05	0.00905151
964.808	0.0006073	0.00338104
967.148	-0.697449	-0.0187531
969.488	0.000128174	0.00905762
971.808	0.000970459	0.00339447
974.148	-0.698151	-0.0187622
976.488	0.000537109	0.00904236
978.808	0.000820923	0.00340759
981.148	-0.697449	-0.0187592
983.488	0.000622559	0.00903015
985.808	-0.000128174	0.00343262
988.148	-0.698944	-0.0187531
990.488	0.000579834	0.00901184
992.808	-0.00043335	0.00345093
995.148	-0.697632	-0.0187592
997.488	-2.74658e-05	0.00900269
999.808	0.000152588	0.00346313
1002.15	-0.697449	-0.0187592
1004.49	-0.000692749	0.00899658
1006.81	-0.000488281	0.00347931
1009.15	-0.698273	-0.0187592
1011.49	9.15527e-06	0.00899048
1013.81	3.66211e-05	0.00349243
1016.15	-0.697754	-0.0187561
1018.49	0.000201416	0.00897827
1020.81	-0.000418091	0.00350891
1023.15	-0.698853	-0.0187592
1025.49	0.000653076	0.00896606
1027.81	0.000579834	0.0035141
1030.15	-0.698669	-0.0187622
1032.49	0.000311279	0.0089386
1034.81	0.000878906	0.00352997
1037.15	-0.69751	-0.0187592
1039.49	0.000656128	0.0089386
1041.81	0.00104065	0.00354004
1044.15	-0.698486	-0.0187561
1046.49	0.000289917	0.00893555
1048.81	-6.10352e-05	0.00356354
1051.15	-0.69809	-0.0187561
1053.49	0.000415039	0.00892029
1055.81	0.00065918	0.00356934
1058.15	-0.698669	-0.0187469
1060.49	-0.000106812	0.00890198
1062.81	2.74658e-05	0.00359039
1065.15	-0.699005	-0.0187439
1067.49	-2.74658e-05	0.00890808
1069.81	0.000909424	0.00359711
1072.15	-0.698975	-0.01875
1074.49	-0.000863647	0.00889587
1076.81	0.000210571	0.00361877
1079.15	-0.698975	-0.0187378
1081.49	-0.000817871	0.00888367
1083.81	0.000894165	0.00361938
1086.15	-0.698975	-0.01875
1088.49	-0.000494385	0.00887451
1090.81	-0.000546265	0.00364349
1093.15	-0.698578	-0.01875
1095.49	0.000180054	0.0088623
1097.81	-0.000466919	0.00365631
1100.15	-0.697998	-0.0187408
1102.49	0.000622559	0.00886841
1104.81	-0.000469971	0.00366791
1107.15	-0.698059	-0.0187408
1109.49	0.000442505	0.0088562
1111.81	-0.000534058	0.00368042
1114.15	-0.697845	-0.0187439
1116.49	-0.000231934	0.00883789
1118.81	-0.000115967	0.0036908
1121.15	-0.698212	-0.0187531
1123.49	3.05176e-05	0.00882874
1125.81	0.000128174	0.00370026
1128.15	-0.698395	-0.0187592
1130.49	-0.000149536	0.00881958
1132.81	0.000863647	0.00370361
1135.15	-0.697418	-0.0187653
1137.49	-0.000567627	0.00881348
1139.81	0.000402832	0.00371857
1142.15	-0.698669	-0.0187622
1144.49	-0.000814819	0.00881348
1146.81	-1.2207e-05	0.00372772
1149.15	-0.698242	-0.0187439
1151.49	-0.000872803	0.00880432
1153.81	0.000442505	0.0037384
1156.15	-0.698608	-0.0187439
1158.49	-0.000784302	0.00879211
1160.81	-0.00012207	0.00375763
1163.15	-0.697998	-0.0187347
1165.49	0.000411987	0.00877686
1167.81	0.000485229	0.00375916
1170.15	-0.698669	-0.0187347
1172.49	0.000662231	0.00877075
1174.81	0.000787354	0.00377197
1177.15	-0.697449	-0.0187439
1179.49	0.000332642	0.00875854
1181.81	0.00106506	0.00378174
1184.15	-0.698578	-0.0187408
1186.49	-0.000793457	0.0087616
1188.81	-0.000439453	0.00380219
1191.15	-0.697601	-0.0187378
1193.49	0.000579834	0.00874023
1195.81	0.000906372	0.00380188
1198.15	-0.697845	-0.0187408
1200.49	-0.000613403	0.00875244
1202.81	-0.000183105	0.00382019
1205.15	-0.699005	-0.0187225
1207.49	0.000668335	0.00873413
1209.81	-0.000439453	0.00383179
1212.15	-0.697632	-0.0187317
1214.49	-0.000439453	0.00873413
1216.81	0.0009552	0.00383087
1219.15	-0.698547	-0.0187164
1221.49	-0.000637817	0.00871277
1223.81	0.000866699	0.00383911
1226.15	-0.698425	-0.0187164
1228.49	-0.000756836	0.00870972
1230.81	-0.000427246	0.00386047
1233.15	-0.697601	-0.0187317
1235.49	9.15527e-05	0.00869141
1237.81	0.00020752	0.00386688
1240.15	-0.699036	-0.0187164
1242.49	-0.000793457	0.00869751
1244.81	-0.000296021	0.00388031
1247.15	-0.698792	-0.0187225
1249.49	2.74658e-05	0.00867615
1251.81	-0.00050354	0.00388977
1254.15	-0.697906	-0.0187225
1256.49	-0.00055542	0.0086731
1258.81	-0.00067749	0.0038974
1261.15	-0.698669	-0.0186951
1263.49	0.000549316	0.00866394
1265.81	-0.000384521	0.00390533
1268.15	-0.697723	-0.0187042
1270.49	-0.000613403	0.00866699
1272.81	0.000201416	0.00391052
1275.15	-0.69751	-0.0187134
1277.49	-7.32422e-05	0.00865173
1279.81	-0.000515747	0.003927
1282.15	-0.698639	-0.018692
1284.49	7.01904e-05	0.00865479
1286.81	0.000314331	0.00393188
1289.15	-0.698944	-0.0186951
1291.49	0.000222778	0.00864868
1293.81	-0.000521851	0.00394531
1296.15	-0.697601	-0.0187103
1298.49	-0.000827026	0.00863342
1300.81	0.000991821	0.00394348
1303.15	-0.697571	-0.0186981
1305.49	-0.000665283	0.00862427
1307.81	-0.000320435	0.00395905
1310.15	-0.698151	-0.018689
1312.49	-0.00039978	0.00861511
1314.81	0.000674438	0.00395966
1317.15	-0.69873	-0.0186798
1319.49	0.000186157	0.00859375
1321.81	-0.000360107	0.00397461
1324.15	-0.699005	-0.0186768
1326.49	0.000427246	0.0085907
1328.81	-0.000598145	0.00398712
1331.15	-0.697662	-0.018692
1333.49	-0.000942993	0.00859985
1335.81	0.000860596	0.00398621
1338.15	-0.697968	-0.018689
1340.49	-7.93457e-05	0.0085968
1342.81	0.000634766	0.00399261
1345.15	-0.697327	-0.0186798
1347.49	-0.000546265	0.00857849
1349.81	-0.000576782	0.00400574
1352.15	-0.697723	-0.0186768
1354.49	0.000323486	0.00858154
1356.81	-0.000521851	0.00401825
1359.15	-0.698181	-0.0186768
1361.49	-0.000540161	0.00856628
1363.81	0.000878906	0.00401489
1366.15	-0.69873	-0.0186584
1368.49	-0.000857544	0.00856323
1370.81	-0.000296021	0.00402954
1373.15	-0.697845	-0.0186737
1375.49	-0.00071106	0.00856323
1377.81	0.000942993	0.00403137
1380.15	-0.697723	-0.0186554
1382.49	-0.00043335	0.00856323
1384.81	-0.000509644	0.00404938
1387.15	-0.699036	-0.0186493
1389.49	0.000564575	0.00853882
1391.81	7.62939e-05	0.00404602
1394.15	-0.697876	-0.0186646
1396.49	0.000595093	0.00852966
1398.81	0.000964355	0.00405365
1401.15	-0.698944	-0.0186523
1403.49	-0.000280762	0.00855103
1405.81	-0.000509644	0.00406891
1408.15	-0.698975	-0.0186584
1410.49	0.000561523	0.00852661
1412.81	0.000231934	0.00407196
1415.15	-0.69754	-0.0186646
1417.49	0.000531006	0.00852051
1419.81	-0.000186157	0.00407776
1422.15	-0.697998	-0.0186646
1424.49	0.00062561	0.00851135
1426.81	0.000540161	0.00407776
1429.15	-0.698944	-0.0186462
1431.49	0.000756836	0.0085144
1433.81	-0.000192261	0.00409424
1436.15	-0.698853	-0.0186493
1438.49	-0.000354004	0.0085083
1440.81	4.57764e-05	0.00409576
1443.15	-0.699158	-0.0186493
1445.49	4.88281e-05	0.00848999
1447.81	0.0009552	0.00409912
1450.15	-0.6987	-0.0186523
1452.49	0.000262451	0.00849915
1454.81	-0.00022583	0.00411713
1457.15	-0.697662	-0.0186523
1459.49	-7.62939e-05	0.00847778
1461.81	3.96729e-05	0.00412048
1464.15	-0.698914	-0.0186371
1466.49	-0.000497437	0.00848694
1468.81	-0.000357056	0.0041275
1471.15	-0.697968	-0.018634
1473.49	0.000613403	0.00848083
1475.81	0.000753784	0.00413055
1478.15	-0.697815	-0.0186279
1480.49	-0.000656128	0.00847778
1482.81	-8.23975e-05	0.00414246
1485.15	-0.69812	-0.0186432
1487.49	-0.000744629	0.00846863
1489.81	-0.000192261	0.00414703
1492.15	-0.698181	-0.018634
1494.49	-0.000823975	0.00846252
1496.81	-0.000244141	0.00415375
1499.15	-0.699127	-0.018631
1501.49	0.000637817	0.00845642
1503.81	-0.000576782	0.00416351
1506.15	-0.699036	-0.0186249
1508.49	-0.000442505	0.00844727
1510.81	0.00083313	0.00415985
1513.15	-0.699005	-0.0186157
1515.49	-0.000598145	0.00845642
1517.81	0.000695801	0.00416534
1520.15	-0.698883	-0.0186218
1522.49	-0.000372314	0.00845337
1524.81	0.000787354	0.00417328
1527.15	-0.698273	-0.018634
1529.49	0.000289917	0.00843811
1531.81	0.000125122	0.00418823
1534.15	-0.698364	-0.0186279
1536.49	-0.000668335	0.00843811
1538.81	0.000271606	0.00419342
1541.15	-0.698486	-0.0186066
1543.49	0.000479126	0.00842896
1545.81	0.000268555	0.0041983
1548.15	-0.698914	-0.0186035
1550.49	-0.000332642	0.0084198
1552.81	0.000167847	0.00420471
1555.15	-0.698761	-0.0186066
1557.49	0.000335693	0.00841675
1559.81	0.000531006	0.0042038
1562.15	-0.697632	-0.0186035
1564.49	-0.000402832	0.00839539
1566.81	0.000140381	0.00421173
1569.15	-0.69754	-0.0186005
1571.49	-0.000213623	0.00841064
1573.81	-8.8501e-05	0.00421783
1576.15	-0.698029	-0.0186035
1578.49	-0.000811768	0.00839233
1580.81	-3.05176e-05	0.00422791
1583.15	-0.69754	-0.0185822
1585.49	-0.000640869	0.00839539
1587.81	-0.000424194	0.00423401
1590.11	0.000958252	0.00212189