File: Edgar/20240607/20240607/electrodeposition_pulsed_potential_20240607_B/pulses_0_to_1000.txt
Time (s)	WE(1).Potential (V)	WE(1).Current (A)
181.633	-0.698364	-0.00317383
183.973	-6.71387e-05	0.000139801
186.293	0.000167847	3.12195e-05
188.633	-0.699432	-0.00521179
190.973	-0.000552368	0.000376373
193.293	0.000195313	4.75159e-05
195.633	-0.699036	-0.00774536
197.973	3.96729e-05	0.000926819
200.293	0.000616455	-2.22778e-06
202.633	-0.698822	-0.00950928
204.973	0.000942993	0.00220612
207.293	0.000668335	-3.1311e-05
209.633	-0.698456	-0.010733
211.973	-0.000436401	0.00366486
214.293	-0.000549316	-4.10156e-05
216.633	-0.699402	-0.0116425
218.973	0.000393677	0.00479523
221.293	-0.000161743	-5.61218e-05
223.633	-0.698029	-0.0123413
225.973	0.00090332	0.00564972
228.293	0.000759888	-5.77087e-05
230.633	-0.698761	-0.0128754
232.973	0.000964355	0.00630798
235.293	0.000143433	-5.32227e-05
237.633	-0.697937	-0.013327
239.973	-0.000357056	0.00684143
242.293	-0.000393677	-4.42505e-05
244.633	-0.699341	-0.0136963
246.973	-0.000592041	0.00727661
249.293	-0.000363159	-3.50037e-05
251.633	-0.698639	-0.0140198
253.973	-0.000314331	0.0076416
256.293	-0.000491333	-2.2583e-05
258.633	-0.697937	-0.014325
260.973	0.000656128	0.00793457
263.293	0.000567627	-1.85242e-05
265.633	-0.697998	-0.0145874
267.973	0.000570679	0.00818176
270.293	-0.000430298	7.90405e-06
272.633	-0.698822	-0.014798
274.973	-5.18799e-05	0.00838928
277.293	-0.000384521	2.36816e-05
279.633	-0.699127	-0.0150116
281.973	-0.000436401	0.00858765
284.293	0.000762939	3.68347e-05
286.633	-0.697784	-0.0152222
288.973	0.000704956	0.00872498
291.293	0.000875854	5.95703e-05
293.633	-0.698334	-0.01539
295.973	0.000588989	0.0088562
298.293	0.000860596	8.48999e-05
300.633	-0.69812	-0.0155579
302.973	-0.000149536	0.00898132
305.293	-0.000683594	0.000127228
307.633	-0.699249	-0.0157135
309.973	-0.000637817	0.00909119
312.293	-0.000494385	0.000157318
314.633	-0.69928	-0.0158539
316.973	0.000570679	0.00917969
319.293	0.000558472	0.000182587
321.633	-0.697968	-0.0159912
323.973	4.27246e-05	0.00924988
326.293	0.000537109	0.000219055
328.633	-0.697998	-0.0161255
330.973	0.000506592	0.00932922
333.293	-0.000460815	0.000266144
335.633	-0.697906	-0.0162415
337.973	-0.000427246	0.00939941
340.293	-6.71387e-05	0.000299103
342.633	-0.697723	-0.0163635
344.973	0.000540161	0.00946045
347.293	-0.000424194	0.000346771
349.633	-0.699127	-0.0164612
351.973	-0.000167847	0.00952759
354.293	-0.000271606	0.000390259
356.633	-0.698334	-0.016571
358.973	0.000650024	0.00956421
361.293	-0.000390625	0.000435577
363.633	-0.699097	-0.0166504
365.973	-0.000820923	0.00960999
368.293	0.000863647	0.000473907
370.633	-0.698395	-0.0167633
372.973	0.000604248	0.00964966
375.293	-0.000534058	0.00053009
377.633	-0.698242	-0.0168365
379.973	-0.000805664	0.00968323
382.293	-0.000396729	0.000578308
384.633	-0.698639	-0.016925
386.973	1.52588e-05	0.00970154
389.293	-0.00055542	0.00062439
391.633	-0.699066	-0.0169891
393.973	-0.00071106	0.00973206
396.293	-0.000439453	0.000671997
398.633	-0.697876	-0.0170807
400.973	-0.000808716	0.00975647
403.293	-0.000497437	0.000721741
405.633	-0.697998	-0.0171631
407.973	-0.000143433	0.00978394
410.293	-0.000588989	0.000769958
412.633	-0.698975	-0.017215
414.973	-0.000756836	0.00979309
417.293	0.000128174	0.000818481
419.633	-0.699036	-0.0172913
421.973	0.000354004	0.0098175
424.293	0.000454712	0.000860901
426.633	-0.699097	-0.0173462
428.973	-0.000836182	0.00982666
431.293	0.000506592	0.000910034
433.633	-0.698669	-0.0174225
435.973	-0.000332642	0.00984497
438.293	-0.000469971	0.000966797
440.633	-0.698669	-0.0174805
442.973	0.000650024	0.00983887
445.293	0.000799561	0.00100952
447.633	-0.698608	-0.0175201
449.973	-0.000732422	0.00985413
452.293	0.000881958	0.00105438
454.633	-0.698273	-0.0175934
456.973	-0.000585937	0.00984802
459.293	0.000839233	0.00110229
461.633	-0.697662	-0.0176422
463.973	-0.000814819	0.00985107
466.293	-0.000567627	0.00115814
468.633	-0.697845	-0.0176941
470.973	-5.79834e-05	0.00986328
473.293	-0.000228882	0.00120514
475.633	-0.697662	-0.0177368
477.973	0.000686646	0.00985413
480.293	7.01904e-05	0.00125458
482.633	-0.697937	-0.0177948
484.973	-0.00038147	0.00986633
487.293	0.000942993	0.00129364
489.633	-0.698242	-0.0178284
491.973	-0.000653076	0.00986328
494.293	-0.000488281	0.00135284
496.633	-0.698792	-0.017865
498.973	-0.000708008	0.00985107
501.293	7.93457e-05	0.00139862
503.633	-0.698792	-0.0179108
505.973	-0.000244141	0.00983276
508.293	-0.000506592	0.00144562
510.633	-0.697784	-0.01796875
512.973	-0.000698853	0.00982666
515.293	-0.000512695	0.00149414
517.633	-0.699158	-0.0179932
519.973	-0.000775146	0.00983276
522.293	0.000881958	0.00153381
524.633	-0.699097	-0.0180267
526.973	0.000219727	0.00982056
529.293	-0.000192261	0.00158783
531.633	-0.698944	-0.0180664
533.973	0.000363159	0.00980225
536.293	0.000723267	0.00162415
538.633	-0.698486	-0.0181061
540.973	7.32422e-05	0.00979309
543.293	0.000982666	0.00166931
545.633	-0.698364	-0.0181396
547.973	-0.000393677	0.00978394
550.293	0.000299072	0.00172272
552.633	-0.698212	-0.0181763
554.973	0.000189209	0.00976868
557.293	-0.000500488	0.00177124
559.633	-0.69754	-0.0182037
561.973	-6.10352e-05	0.00975647
564.293	-0.000521851	0.00181122
566.633	-0.698792	-0.018222
568.973	-0.000650024	0.00976257
571.293	0.000985718	0.00185059
573.633	-0.697693	-0.0182617
575.973	-0.00072937	0.00973816
578.293	-0.000241089	0.00190216
580.633	-0.699127	-0.0182831
582.973	0.000469971	0.00973816
585.293	-0.000460815	0.00194031
587.633	-0.699005	-0.0183014
589.973	0.00010376	0.0097168
592.293	-0.000479126	0.00198853
594.633	-0.697998	-0.0183289
596.973	-0.000604248	0.00971985
599.293	0.000888062	0.00202179
601.633	-0.698822	-0.0183472
603.973	-0.000164795	0.00970459
606.293	-0.000128174	0.00207062
608.633	-0.697998	-0.0183868
610.973	-0.000238037	0.00968933
613.293	-0.000497437	0.002109375
615.633	-0.699005	-0.0183929
617.973	9.76562e-05	0.00967712
620.293	0.000897217	0.00213837
622.633	-0.69751	-0.0184265
624.973	-0.000891113	0.00966492
627.293	0.000622559	0.00218231
629.633	-0.698883	-0.0184387
631.973	-0.000842285	0.00964355
634.293	0.000164795	0.00221832
636.633	-0.698181	-0.0184509
638.973	3.05176e-06	0.0096283
641.293	0.00101624	0.00225342
643.633	-0.698639	-0.0184723
645.973	-0.000411987	0.00961609
648.293	-0.000540161	0.00230072
650.633	-0.698944	-0.0184998
652.973	0.000442505	0.00961609
655.293	-3.66211e-05	0.00233398
657.633	-0.697601	-0.018512
659.973	0.000628662	0.00958862
662.293	-0.000442505	0.00237061
664.633	-0.698181	-0.0185272
666.973	0.000366211	0.00957947
669.293	-0.000552368	0.00240173
671.633	-0.697418	-0.0185364
673.973	-0.000466919	0.00957031
676.294	-0.000231934	0.00243835
678.634	-0.698822	-0.0185394
680.974	0.000299072	0.009552
683.294	-0.000393677	0.00247131
685.634	-0.698944	-0.0185547
687.974	0.000418091	0.0095459
690.294	0.000616455	0.00249207
692.634	-0.698242	-0.0185822
694.974	0.000292969	0.00953674
697.294	-0.0003479	0.00252991
699.634	-0.6987	-0.018576
701.974	-0.000814819	0.00951538
704.294	0.000234985	0.0025589
706.634	-0.699066	-0.0185944
708.974	-0.000872803	0.00950623
711.294	0.00090332	0.00258728
713.634	-0.6987	-0.0186035
715.974	0.000756836	0.00949707
718.294	0.000466919	0.00262299
720.634	-0.698578	-0.0186279
722.974	-0.000369263	0.00947571
725.294	0.000137329	0.00264648
727.634	-0.698517	-0.018631
729.974	-0.000384521	0.00946655
732.294	0.000131226	0.0026767
734.634	-0.698364	-0.018631
736.974	-0.000405884	0.00943604
739.294	0.000570679	0.00270203
741.634	-0.698975	-0.0186371
743.974	-0.000152588	0.00942078
746.294	-0.00027771	0.00273987
748.634	-0.698242	-0.0186432
750.974	0.000628662	0.00941162
753.294	7.93457e-05	0.00276245
755.634	-0.697723	-0.0186615
757.974	0.00055542	0.00939941
760.294	-0.00050354	0.00279144
762.634	-0.698212	-0.0186707
764.974	-0.000643921	0.00939636
767.294	0.000723267	0.00281036
769.634	-0.699127	-0.0186707
771.974	0.000592041	0.0093811
774.294	0.00102844	0.00283661
776.634	-0.69809	-0.018689
778.974	0.000357056	0.00936584
781.294	-0.000305176	0.00286591
783.634	-0.698975	-0.0186829
785.974	-0.000247192	0.00935669
788.294	-0.000491333	0.00289124
790.634	-0.697662	-0.018692
792.974	-0.000515747	0.00933838
795.294	-0.000271606	0.00291412
797.634	-0.697968	-0.0187042
799.974	0.000274658	0.00932617
802.294	-0.000228882	0.00294189
804.634	-0.698914	-0.0186951
806.974	0.000296021	0.00930176
809.294	0.00057373	0.0029541
811.634	-0.69873	-0.0187012
813.974	0.0003479	0.00929565
816.294	-0.000466919	0.00298889
818.634	-0.698883	-0.0187012
820.974	-0.000912476	0.00927734
823.294	0.000888062	0.00299988
825.634	-0.698914	-0.0187164
827.974	0.000350952	0.00925903
830.294	-0.000509644	0.0030304
832.634	-0.698273	-0.0187256
834.974	0.000320435	0.00926208
837.294	0.000909424	0.00304779
839.634	-0.69873	-0.0187134
841.974	-0.000265503	0.00924072
844.294	0.000738525	0.00306885
846.634	-0.697723	-0.0187378
848.974	-0.000274658	0.00923767
851.294	-0.000552368	0.00309723
853.634	-0.698883	-0.0187225
855.974	-0.00085144	0.00922546
858.294	-0.000375366	0.00311432
860.634	-0.697845	-0.0187408
862.974	-0.000817871	0.00921021
865.294	-0.000289917	0.00313965
867.634	-0.697693	-0.01875
869.974	-0.000814819	0.009198
872.294	0.000497437	0.0031546
874.634	-0.698853	-0.0187286
876.974	-0.000143433	0.00917053
879.294	0.000344849	0.0031723
881.594	-0.000488281	0.000944824