File: Edgar/20240607/20240607/electrodeposition_pulsed_potential_20240607_B/pulses_3000_to_4000.txt
Time (s)	WE(1).Potential (V)	WE(1).Current (A)
2307.85	-0.697449	-0.0210907
2310.19	-0.000524902	0.00782776
2312.51	0.000320435	0.00456726
2314.85	-0.698364	-0.0183716
2317.19	-0.000543213	0.00792542
2319.51	-0.000570679	0.00461151
2321.85	-0.697571	-0.0183685
2324.19	0.000567627	0.00793152
2326.51	-0.000543213	0.00462402
2328.85	-0.698273	-0.0183563
2331.19	-0.000918579	0.00794067
2333.51	-0.000521851	0.0046347
2335.85	-0.699036	-0.0183411
2338.19	0.000604248	0.00793762
2340.51	0.000531006	0.00463318
2342.85	-0.697815	-0.018338
2345.19	0.000683594	0.00793762
2347.51	0.000915527	0.00463501
2349.85	-0.698883	-0.0183289
2352.19	-0.000305176	0.00793457
2354.51	4.27246e-05	0.00464172
2356.85	-0.697784	-0.0183289
2359.19	-0.000613403	0.00794067
2361.51	0.000198364	0.00464752
2363.85	-0.699036	-0.0183319
2366.19	-0.000814819	0.00794067
2368.51	-0.000570679	0.00465576
2370.85	-0.699097	-0.0183258
2373.19	-0.000808716	0.00794067
2375.51	-0.000454712	0.00465088
2377.85	-0.699097	-0.0183197
2380.19	0.000393677	0.00791931
2382.51	-0.000119019	0.00466248
2384.85	-0.698608	-0.0183319
2387.19	-0.000674438	0.00792542
2389.51	5.18799e-05	0.00465424
2391.85	-0.698364	-0.0183228
2394.19	-0.000473022	0.00793457
2396.51	0.00043335	0.00465454
2398.85	-0.697845	-0.0183136
2401.19	3.35693e-05	0.00792542
2403.51	0.000869751	0.00465851
2405.85	-0.698914	-0.0183105
2408.19	-5.18799e-05	0.00792542
2410.51	0.000595093	0.00466675
2412.85	-0.69873	-0.0183014
2415.19	-0.000665283	0.00794067
2417.51	0.000543213	0.0046698
2419.85	-0.698914	-0.0183319
2422.19	0.000631714	0.00792542
2424.51	-0.000140381	0.00467377
2426.85	-0.698914	-0.0183197
2429.19	0.0006073	0.00792236
2431.51	0.00017395	0.00467041
2433.85	-0.697632	-0.0183258
2436.19	0.000402832	0.00791321
2438.51	0.00083313	0.00466766
2440.85	-0.699005	-0.0183167
2443.19	0.000616455	0.00791626
2445.51	0.000891113	0.00467377
2447.85	-0.697693	-0.0183197
2450.19	-0.000762939	0.00791931
2452.51	-0.000320435	0.00468048
2454.85	-0.698151	-0.0183136
2457.19	7.93457e-05	0.00789795
2459.51	0.00038147	0.00467773
2461.85	-0.699005	-0.0183105
2464.19	0.000650024	0.00790405
2466.51	-0.000604248	0.00468872
2468.85	-0.69812	-0.0183167
2471.19	-1.2207e-05	0.0078949
2473.51	0.000692749	0.00467987
2475.85	-0.698853	-0.0182983
2478.19	-0.000802612	0.007901
2480.51	-0.000579834	0.00469238
2482.85	-0.698395	-0.0182953
2485.19	0.000628662	0.0078949
2487.51	-0.000561523	0.00469482
2489.85	-0.699036	-0.0183014
2492.19	-0.000231934	0.00788879
2494.51	0.000628662	0.00468719
2496.85	-0.698761	-0.0182983
2499.19	-0.000799561	0.00789795
2501.51	0.000836182	0.00468872
2503.85	-0.698273	-0.0183044
2506.19	-0.000585937	0.00788269
2508.51	8.23975e-05	0.00469879
2510.85	-0.698944	-0.0182983
2513.19	0.000305176	0.00787354
2515.51	0.000790405	0.0046936
2517.85	-0.698975	-0.0182953
2520.19	-0.00010376	0.00788879
2522.51	0.000769043	0.00469604
2524.85	-0.697845	-0.0182922
2527.19	0.000488281	0.00787048
2529.51	0.000692749	0.00469757
2531.85	-0.697815	-0.0183044
2534.19	0.000564575	0.00787964
2536.51	-0.000259399	0.00471069
2538.85	-0.699005	-0.0182892
2541.19	-0.000579834	0.00788269
2543.51	-0.000604248	0.00471344
2545.85	-0.697693	-0.0182922
2548.19	-0.000680542	0.00787354
2550.51	0.000881958	0.00470612
2552.85	-0.697601	-0.0182892
2555.19	0.000595093	0.00786438
2557.51	-0.000305176	0.00471771
2559.85	-0.697754	-0.01828
2562.19	-0.000149536	0.00787659
2564.51	-0.000308228	0.00472015
2566.85	-0.69754	-0.0182892
2569.19	-0.00065918	0.00786133
2571.51	0.000640869	0.0047171
2573.85	-0.698669	-0.01828
2576.19	-0.000146484	0.00784912
2578.51	0.000610352	0.00471619
2580.85	-0.698975	-0.0182709
2583.19	0.000515747	0.00784912
2585.51	0.000866699	0.00471832
2587.85	-0.698517	-0.0182678
2590.19	0.000350952	0.00784302
2592.51	-0.000564575	0.00473206
2594.85	-0.699036	-0.0182648
2597.19	0.000570679	0.00784912
2599.51	-0.000384521	0.00473236
2601.85	-0.698364	-0.0182648
2604.19	0.000442505	0.00783691
2606.51	0.000100708	0.00473389
2608.85	-0.698456	-0.0182617
2611.19	-0.000726318	0.00783997
2613.51	0.000872803	0.00473145
2615.85	-0.698181	-0.0182709
2618.19	-0.000582886	0.00785217
2620.51	-0.000631714	0.00473785
2622.85	-0.699066	-0.0182556
2625.19	-0.00078125	0.00783691
2627.51	-0.000628662	0.00474091
2629.85	-0.697998	-0.0182739
2632.19	-0.000665283	0.00784607
2634.51	2.44141e-05	0.00474121
2636.85	-0.699127	-0.0182617
2639.19	-0.000387573	0.00782166
2641.51	0.000802612	0.00473419
2643.85	-0.69754	-0.0182648
2646.19	-0.000460815	0.0078186
2648.51	-0.000494385	0.00474487
2650.85	-0.699036	-0.0182526
2653.19	-0.000619507	0.00783081
2655.51	-0.000265503	0.00474365
2657.85	-0.6987	-0.0182587
2660.19	0.000485229	0.0078186
2662.51	0.000119019	0.00474304
2664.85	-0.698944	-0.0182434
2667.19	-0.000256348	0.00781555
2669.51	0.000421143	0.00474854
2671.85	-0.699036	-0.0182434
2674.19	-0.000143433	0.0078125
2676.51	0.000698853	0.00474518
2678.85	-0.698975	-0.0182404
2681.19	0.000250244	0.0078186
2683.51	0.000369263	0.00475067
2685.85	-0.697601	-0.0182465
2688.19	0.000595093	0.0078064
2690.51	0.000881958	0.0047464
2692.85	-0.697998	-0.0182434
2695.19	0.000192261	0.00779724
2697.51	0.000601196	0.00475159
2699.85	-0.69754	-0.0182404
2702.19	0.000375366	0.00779419
2704.51	-9.15527e-06	0.00475555
2706.85	-0.698975	-0.0182312
2709.19	0.000466919	0.00780029
2711.51	-8.23975e-05	0.00476227
2713.85	-0.697845	-0.0182556
2716.19	0.000164795	0.00779114
2718.51	0.000634766	0.00475067
2720.85	-0.698914	-0.0182495
2723.19	0.000213623	0.0078064
2725.51	0.000805664	0.00475891
2727.85	-0.697571	-0.0182526
2730.19	-0.000756836	0.00780029
2732.51	0.000164795	0.00476532
2734.85	-0.699158	-0.0182465
2737.19	0.000613403	0.00779724
2739.51	-0.000292969	0.00476807
2741.85	-0.697815	-0.0182556
2744.19	-0.000112915	0.0078064
2746.51	0.00015564	0.0047644
2748.85	-0.697998	-0.0182556
2751.19	0.000186157	0.00780029
2753.51	0.000180054	0.00476807
2755.85	-0.699005	-0.0182404
2758.19	0.000662231	0.00778198
2760.51	-0.000588989	0.00477539
2762.85	-0.699005	-0.0182404
2765.19	0.000363159	0.00776978
2767.51	-7.62939e-05	0.00476929
2769.85	-0.698578	-0.0182281
2772.19	0.000592041	0.00777893
2774.51	-6.10352e-06	0.00477417
2776.85	-0.697571	-0.0182434
2779.19	-0.000436401	0.00777588
2781.51	0.000714111	0.00477173
2783.85	-0.698273	-0.0182373
2786.19	-0.000561523	0.00777893
2788.51	0.00012207	0.00477448
2790.85	-0.697845	-0.0182404
2793.19	0.000201416	0.00777588
2795.51	0.000616455	0.00477814
2797.85	-0.697723	-0.0182281
2800.19	-0.00010376	0.00777588
2802.51	0.000823975	0.00477509
2804.85	-0.697662	-0.0182312
2807.19	0.000112915	0.00776062
2809.51	0.000924683	0.00478149
2811.85	-0.698853	-0.0182281
2814.19	-0.000430298	0.00777283
2816.51	8.8501e-05	0.00478943
2818.85	-0.699036	-0.018222
2821.19	0.000338745	0.00776367
2823.51	0.000552368	0.00478973
2825.85	-0.697815	-0.018222
2828.19	-0.000698853	0.00776672
2830.51	0.00055542	0.00478638
2832.85	-0.698792	-0.0182251
2835.19	-0.000842285	0.00776062
2837.51	-0.000540161	0.00479706
2839.85	-0.697662	-0.018222
2842.19	-0.000830078	0.00775452
2844.51	0.000854492	0.00478882
2846.85	-0.698303	-0.0182129
2849.19	0.000668335	0.00774841
2851.51	0.000796509	0.00479004
2853.85	-0.698883	-0.0182068
2856.19	-0.000326538	0.00774231
2858.51	0.000823975	0.00479279
2860.85	-0.697876	-0.0182037
2863.19	0.000152588	0.00775452
2865.51	-0.000180054	0.00479706
2867.85	-0.698425	-0.0181946
2870.19	-0.000708008	0.00773926
2872.51	-0.000531006	0.00480316
2874.85	-0.697571	-0.0181976
2877.19	0.000454712	0.00773315
2879.51	0.000839233	0.00479614
2881.85	-0.697815	-0.0182129
2884.19	9.76562e-05	0.00774536
2886.51	-2.44141e-05	0.00480194
2888.85	-0.698212	-0.0181976
2891.19	0.000137329	0.00773315
2893.51	-0.000421143	0.00480835
2895.85	-0.698822	-0.0181854
2898.19	-0.000793457	0.00773621
2900.51	0.000964355	0.00480469
2902.85	-0.697479	-0.0181976
2905.19	1.83105e-05	0.0077179
2907.51	-0.000540161	0.00481445
2909.85	-0.69754	-0.0182068
2912.19	-0.000848389	0.0077179
2914.51	0.000787354	0.00478668
2916.85	-0.698669	-0.018219
2919.19	0.000674438	0.00771179
2921.51	-7.93457e-05	0.00479004
2923.85	-0.697968	-0.0182159
2926.19	-1.2207e-05	0.00770874
2928.51	-0.000506592	0.00479889
2930.85	-0.697784	-0.0182037
2933.19	0.00020752	0.00770264
2935.51	0.000280762	0.00480286
2937.85	-0.697571	-0.0182098
2940.19	0.000418091	0.00771484
2942.51	0.000222778	0.00480713
2944.85	-0.698975	-0.0181915
2947.19	-0.000769043	0.00771179
2949.51	-0.000460815	0.00481659
2951.85	-0.699005	-0.0181915
2954.19	-0.000604248	0.00770569
2956.51	8.23975e-05	0.00481598
2958.85	-0.698822	-0.0181793
2961.19	0.000247192	0.00770569
2963.51	0.000177002	0.00481445
2965.85	-0.697571	-0.0181854
2968.19	-0.000646973	0.00769958
2970.51	0.000296021	0.00481293
2972.85	-0.697784	-0.0181824
2975.19	-0.000485229	0.00770569
2977.51	0.000848389	0.00481506
2979.85	-0.698578	-0.0181854
2982.19	0.000680542	0.00769958
2984.51	-0.000521851	0.00482666
2986.85	-0.698853	-0.0181854
2989.19	-0.00057373	0.00768738
2991.51	-0.00045166	0.00482635
2993.85	-0.697571	-0.0181793
2996.19	-0.000802612	0.00768433
2998.51	0.000549316	0.00482239
3000.85	-0.698883	-0.018161
3003.19	0.000228882	0.00768738
3005.51	0.000823975	0.00482269
3007.81	-0.000527954	0.00318878