File: Edgar/20240607/20240607/electrodeposition_pulsed_potential_20240607_B/pulses_2000_to_3000.txt
Time (s)	WE(1).Potential (V)	WE(1).Current (A)
1599.1	-0.697723	-0.020697
1601.44	-0.000631714	0.0082489
1603.76	0.000894165	0.00417084
1606.1	-0.698944	-0.0186157
1608.44	0.000643921	0.00832825
1610.76	0.000894165	0.00421295
1613.1	-0.698975	-0.0185944
1615.44	-0.00090332	0.00834045
1617.76	0.000189209	0.00423248
1620.1	-0.698425	-0.0185913
1622.44	-0.000762939	0.00834656
1624.76	9.46045e-05	0.00424927
1627.1	-0.698669	-0.0185699
1629.44	-0.000216675	0.00834045
1631.76	-0.000543213	0.00426056
1634.1	-0.697815	-0.0185669
1636.44	-0.000680542	0.00834351
1638.76	0.00020752	0.00426056
1641.1	-0.698395	-0.018576
1643.44	-4.27246e-05	0.00834656
1645.76	0.000656128	0.00427246
1648.1	-0.697723	-0.018573
1650.44	0.000210571	0.00834351
1652.76	0.00022583	0.00427246
1655.1	-0.697845	-0.0185699
1657.44	-0.000769043	0.00834656
1659.76	0.000424194	0.00428345
1662.1	-0.699036	-0.0185516
1664.44	0.000244141	0.0083374
1666.76	-0.000411987	0.0042926
1669.1	-0.698792	-0.0185577
1671.44	-0.000784302	0.00833435
1673.76	-0.00050354	0.00429596
1676.1	-0.699036	-0.0185486
1678.44	0.000622559	0.00832214
1680.76	0.000283813	0.0042981
1683.1	-0.69754	-0.0185577
1685.44	-0.000323486	0.0083252
1687.76	-0.000320435	0.00430573
1690.1	-0.698151	-0.0185486
1692.44	-0.000445557	0.00832214
1694.76	-1.52588e-05	0.00430817
1697.1	-0.6987	-0.0185455
1699.44	4.57764e-05	0.00830383
1701.76	0.000546265	0.00431427
1704.1	-0.697876	-0.0185577
1706.44	-0.000292969	0.00829468
1708.76	-4.27246e-05	0.00432129
1711.1	-0.697449	-0.0185364
1713.44	-0.000604248	0.00829468
1715.76	0.000378418	0.00432037
1718.1	-0.698822	-0.0185364
1720.44	0.000579834	0.00829773
1722.76	-0.000128174	0.00432587
1725.1	-0.698517	-0.0185455
1727.44	0.000567627	0.00829163
1729.76	-0.000631714	0.00433868
1732.1	-0.697968	-0.0185364
1734.44	-0.000845337	0.00829468
1736.76	-0.000543213	0.00434479
1739.1	-0.698975	-0.0185272
1741.44	0.000540161	0.00828552
1743.76	0.000765991	0.00433807
1746.1	-0.698578	-0.0185333
1748.44	0.000643921	0.00828247
1750.76	0.000469971	0.00434357
1753.1	-0.69754	-0.0185333
1755.44	0.000601196	0.00826416
1757.76	0.000369263	0.00435303
1760.1	-0.698761	-0.0185211
1762.44	0.00055542	0.00826111
1764.76	0.000466919	0.00435303
1767.1	-0.697723	-0.0185272
1769.44	-8.8501e-05	0.00827026
1771.76	0.000650024	0.00435516
1774.1	-0.698517	-0.018512
1776.44	0.000515747	0.00826416
1778.76	-0.000387573	0.00436981
1781.1	-0.698395	-0.0185181
1783.44	-0.000778198	0.00824585
1785.76	0.000653076	0.00436676
1788.1	-0.697601	-0.018512
1790.44	0.000454712	0.0082428
1792.76	-6.10352e-06	0.00437347
1795.1	-0.69873	-0.018515
1797.44	0.000588989	0.00824585
1799.76	-0.000497437	0.00438019
1802.1	-0.6987	-0.0184937
1804.44	0.000421143	0.00823669
1806.76	0.000762939	0.00437439
1809.1	-0.698425	-0.0184906
1811.44	-0.000524902	0.00823364
1813.76	0.000900269	0.00438049
1816.1	-0.698547	-0.0185028
1818.44	-0.000244141	0.00821838
1820.76	0.000704956	0.00438263
1823.1	-0.69809	-0.0184906
1825.44	0.000518799	0.00822144
1827.76	0.000665283	0.00439026
1830.1	-0.697937	-0.0185028
1832.44	-0.000701904	0.00822449
1834.76	-0.000280762	0.00440094
1837.1	-0.697632	-0.0184967
1839.44	-0.000817871	0.00821228
1841.76	0.00085144	0.00439423
1844.1	-0.69751	-0.0184875
1846.44	0.000628662	0.008203125
1848.76	0.000253296	0.00440643
1851.1	-0.698059	-0.0184906
1853.44	-0.000582886	0.00821228
1855.76	2.13623e-05	0.0044104
1858.1	-0.697571	-0.0184814
1860.44	0.000170898	0.00819092
1862.76	-0.000439453	0.00441833
1865.1	-0.697876	-0.0184784
1867.44	0.00057373	0.00819702
1869.76	7.32422e-05	0.00441681
1872.1	-0.698883	-0.0184723
1874.44	0.000604248	0.00818787
1876.76	-0.000436401	0.00442474
1879.1	-0.69873	-0.0184631
1881.44	0.000314331	0.00819092
1883.76	-0.000390625	0.00443146
1886.1	-0.697815	-0.0184662
1888.44	-0.000695801	0.00818481
1890.76	-0.000317383	0.00443054
1893.1	-0.697479	-0.0184631
1895.44	0.000680542	0.00818176
1897.76	-0.000485229	0.00443512
1900.1	-0.698914	-0.0184692
1902.44	-0.000222778	0.00818481
1904.76	-0.000509644	0.00443756
1907.1	-0.69751	-0.0184753
1909.44	0.000543213	0.00816956
1911.76	-0.000143433	0.00444183
1914.1	-0.698364	-0.0184784
1916.44	-9.76562e-05	0.00818481
1918.76	0.000888062	0.00443756
1921.1	-0.698914	-0.0184784
1923.44	0.000473022	0.00817261
1925.76	0.000665283	0.00444458
1928.1	-0.698944	-0.0184814
1930.44	1.83105e-05	0.00817871
1932.76	-0.000512695	0.00445099
1935.1	-0.698792	-0.0184845
1937.44	-0.000393677	0.00817871
1939.76	0.000796509	0.00445282
1942.1	-0.697571	-0.0184814
1944.44	-0.000518799	0.00817261
1946.76	0.000143433	0.00445984
1949.1	-0.698578	-0.0184692
1951.44	0.000628662	0.0081543
1953.76	0.000744629	0.00445679
1956.1	-0.698792	-0.0184662
1958.44	0.000292969	0.00814819
1960.76	-0.00055542	0.00446808
1963.1	-0.697632	-0.0184784
1965.44	-0.000701904	0.00814819
1967.76	7.01904e-05	0.0044696
1970.1	-0.697968	-0.0184692
1972.44	-0.000454712	0.00814209
1974.76	0.000369263	0.00447205
1977.1	-0.698669	-0.0184692
1979.44	-0.000177002	0.00814819
1981.76	0.000762939	0.00447113
1984.1	-0.698883	-0.0184631
1986.44	-0.000820923	0.00814209
1988.76	0.000881958	0.00447357
1991.1	-0.697571	-0.0184662
1993.44	-0.000543213	0.00814819
1995.76	-0.000326538	0.00448364
1998.1	-0.697754	-0.0184662
2000.44	0.000326538	0.00813293
2002.76	0.000817871	0.00448059
2005.1	-0.697876	-0.0184479
2007.44	0.000115967	0.00813599
2009.76	0.000650024	0.00448517
2012.1	-0.697845	-0.0184509
2014.44	-0.000805664	0.00812378
2016.76	-0.00055542	0.00449768
2019.1	-0.698486	-0.0184479
2021.44	0.000561523	0.00811462
2023.76	0.000650024	0.00449188
2026.1	-0.69754	-0.0184509
2028.44	0.000656128	0.00810852
2030.76	0.000750732	0.00449738
2033.1	-0.697571	-0.0184448
2035.44	-0.000604248	0.00811462
2037.76	1.52588e-05	0.00450287
2040.1	-0.69873	-0.0184387
2042.44	-9.46045e-05	0.00810852
2044.76	0.00065918	0.00450195
2047.1	-0.698853	-0.0184265
2049.44	0.000384521	0.00810547
2051.76	0.000708008	0.00450653
2054.1	-0.697693	-0.0184265
2056.44	0.000518799	0.00809937
2058.76	-0.000588989	0.00451569
2061.1	-0.698059	-0.0184357
2063.44	-0.000262451	0.00810242
2065.76	0.000558472	0.00451447
2068.1	-0.698364	-0.0184296
2070.44	0.000323486	0.00809021
2072.76	-0.000543213	0.00452545
2075.1	-0.697845	-0.0184296
2077.44	-0.000796509	0.00808411
2079.76	-0.000192261	0.00452209
2082.1	-0.698608	-0.0184082
2084.44	0.000500488	0.00806885
2086.76	-0.000350952	0.00453094
2089.1	-0.697632	-0.0184204
2091.44	0.000137329	0.008078
2093.76	0.000436401	0.00452454
2096.1	-0.69751	-0.0184174
2098.44	-0.000616455	0.00808411
2100.76	-0.000579834	0.00453278
2103.1	-0.698395	-0.018399
2105.44	-0.000656128	0.0080658
2107.76	0.000360107	0.0045401
2110.1	-0.697479	-0.0184113
2112.44	0.000219727	0.00805054
2114.76	0.0009552	0.00453461
2117.1	-0.698029	-0.0184143
2119.44	0.000140381	0.0080658
2121.76	-0.000579834	0.00454773
2124.1	-0.69873	-0.0184052
2126.44	0.00020752	0.00804443
2128.76	-0.000653076	0.00454865
2131.1	-0.699005	-0.0183929
2133.44	0.000506592	0.00805664
2135.76	-0.000640869	0.00455566
2138.1	-0.697693	-0.0184021
2140.44	-0.000549316	0.00805054
2142.76	0.000845337	0.00455383
2145.1	-0.697632	-0.018396
2147.44	-0.000787354	0.00804138
2149.76	-0.000262451	0.00456299
2152.1	-0.698944	-0.0183807
2154.44	-0.000704956	0.00804443
2156.76	0.000314331	0.00456268
2159.1	-0.69754	-0.0183929
2161.44	-0.000521851	0.00803223
2163.76	-2.13623e-05	0.00455994
2166.1	-0.698059	-0.0183899
2168.44	-0.000683594	0.00804138
2170.76	-1.2207e-05	0.00456238
2173.1	-0.69754	-0.0183899
2175.44	0.000445557	0.00803528
2177.76	0.00062561	0.00456329
2180.1	-0.699005	-0.0183685
2182.44	0.000271606	0.00802612
2184.76	-0.000302124	0.00457825
2187.1	-0.69812	-0.0183716
2189.44	-0.000839233	0.00802307
2191.76	-0.000430298	0.00457947
2194.1	-0.698059	-0.0183746
2196.44	0.000308228	0.00802307
2198.76	0.000491333	0.00457916
2201.1	-0.698029	-0.0183838
2203.44	6.40869e-05	0.00799866
2205.76	0.00039978	0.00458527
2208.1	-0.697479	-0.0183716
2210.44	-0.000140381	0.00801392
2212.76	-0.000546265	0.00458923
2215.1	-0.698975	-0.0183594
2217.44	0.000427246	0.00800476
2219.76	0.000524902	0.00458832
2222.1	-0.698822	-0.0183563
2224.44	-0.000366211	0.00800171
2226.76	0.00038147	0.00459076
2229.1	-0.697662	-0.0183838
2231.44	0.000509644	0.00800781
2233.76	-0.000268555	0.00459869
2236.1	-0.698975	-0.0183655
2238.44	-0.000543213	0.00800476
2240.76	2.44141e-05	0.0045993
2243.1	-0.6987	-0.0183716
2245.44	-0.000289917	0.00800476
2247.76	-0.000518799	0.00460236
2250.1	-0.698792	-0.0183624
2252.44	-0.000265503	0.00800171
2254.76	0.00088501	0.00459686
2257.1	-0.697571	-0.0183746
2259.44	-0.000836182	0.0079895
2261.76	3.05176e-05	0.00460236
2264.1	-0.69751	-0.0183746
2266.44	0.000234985	0.00799561
2268.76	-0.000564575	0.00461243
2271.1	-0.697968	-0.0183563
2273.44	0.000436401	0.0079834
2275.76	0.000848389	0.00460632
2278.1	-0.698395	-0.0183594
2280.44	4.57764e-05	0.0079834
2282.76	-0.000439453	0.00461792
2285.1	-0.697815	-0.0183594
2287.44	0.000592041	0.00797119
2289.76	0.000314331	0.00461304
2292.1	-0.697571	-0.0183502
2294.44	-9.46045e-05	0.00798035
2296.76	0.000335693	0.00462067
2299.06	-0.000500488	0.00277588