File: Edgar/20230906/20230906/EC_measurement_WO3_in_H2SO4_1M_1/electrochromic_data/OCP_3(1)
Time (s)	WE(1).Potential (V)	External(1).External 2 (V)
10339.4	0.270935	2.97852
10340.4	0.268219	2.97821
10341.4	0.266541	2.97852
10342.4	0.265015	2.97791
10343.4	0.263641	2.97882
10344.4	0.26239	2.97791
10345.4	0.261261	2.97882
10346.4	0.260254	2.97852
10347.4	0.259369	2.97882
10348.4	0.258545	2.97913
10349.4	0.257843	2.97913
10350.4	0.257202	2.97882
10351.4	0.256622	2.97913
10352.4	0.256104	2.97852
10353.4	0.255615	2.97913
10354.4	0.255157	2.97821
10355.4	0.254761	2.97882
10356.4	0.254395	2.97913
10357.4	0.254028	2.97882
10358.4	0.253723	2.97882
10359.4	0.253418	2.97882
10360.4	0.253143	2.97882
10361.4	0.252869	2.97913
10362.4	0.252625	2.97821
10363.4	0.25238	2.97852
10364.4	0.252167	2.97943
10365.4	0.251953	2.97943
10366.4	0.25177	2.97882
10367.4	0.251587	2.97882
10368.4	0.251434	2.97852
10369.4	0.251251	2.97913
10370.4	0.251099	2.97913
10371.4	0.250946	2.97943
10372.4	0.250824	2.97821
10373.4	0.250671	2.97882
10374.4	0.250549	2.97913
10375.4	0.250427	2.97943
10376.4	0.250305	2.97943
10377.4	0.250183	2.97882
10378.4	0.250092	2.97821
10379.4	0.25	2.97913
10380.4	0.249908	2.97791
10381.4	0.249817	2.97974
10382.4	0.249725	2.97913
10383.4	0.249634	2.97913
10384.4	0.249542	2.97913
10385.4	0.249481	2.97882
10386.4	0.24939	2.97913
10387.4	0.249329	2.97882
10388.4	0.249237	2.97913
10389.4	0.249176	2.97943
10390.4	0.249115	2.97852
10391.4	0.249054	2.97852
10392.4	0.248993	2.97852
10393.4	0.248932	2.97882
10394.4	0.248871	2.97791
10395.4	0.24881	2.97882
10396.4	0.248749	2.97882
10397.4	0.248718	2.97913
10398.4	0.248657	2.97882
10399.4	0.248596	2.97913
10400.4	0.248566	2.97852
10401.4	0.248505	2.97852
10402.4	0.248474	2.97913
10403.4	0.248444	2.97882
10404.4	0.248383	2.97943
10405.4	0.248352	2.97913
10406.4	0.248322	2.97791
10407.4	0.248291	2.97882
10408.4	0.24823	2.97974
10409.4	0.248199	2.97913
10410.4	0.248169	2.97852
10411.4	0.248138	2.97943
10412.4	0.248108	2.97943
10413.4	0.248077	2.97852
10414.4	0.248047	2.97882
10415.4	0.248016	2.97913
10416.4	0.247986	2.97852
10417.4	0.247986	2.97852
10418.4	0.247955	2.97882
10419.4	0.247925	2.97791
10420.4	0.247894	2.97913
10421.4	0.247864	2.97882
10422.4	0.247864	2.97913
10423.4	0.247833	2.97852
10424.4	0.247803	2.97943
10425.4	0.247772	2.97852
10426.4	0.247772	2.97913
10427.4	0.247742	2.97852
10428.4	0.247742	2.97882
10429.4	0.247711	2.97882
10430.4	0.247681	2.97913
10431.4	0.247681	2.97852
10432.4	0.24765	2.97882
10433.4	0.24765	2.97882
10434.4	0.24762	2.97913
10435.4	0.24762	2.97943
10436.4	0.247589	2.97882
10437.4	0.247589	2.97852
10438.4	0.247589	2.97913
10439.4	0.247559	2.97882
10440.4	0.247559	2.97913
10441.4	0.247528	2.97852
10442.4	0.247528	2.97913
10443.4	0.247528	2.97913
10444.4	0.247498	2.97913
10445.4	0.247498	2.97943
10446.4	0.247498	2.97974
10447.4	0.247467	2.97913
10448.4	0.247467	2.97943
10449.4	0.247467	2.97852
10450.4	0.247467	2.97882
10451.4	0.247437	2.97913
10452.4	0.247437	2.97913
10453.4	0.247437	2.97882
10454.4	0.247437	2.97882
10455.4	0.247406	2.97882
10456.4	0.247406	2.97882
10457.4	0.247406	2.97852
10458.4	0.247406	2.97821
10459.4	0.247406	2.97974
10460.4	0.247406	2.97852
10461.4	0.247375	2.97882
10462.4	0.247375	2.97852
10463.4	0.247375	2.97913
10464.4	0.247375	2.97852
10465.4	0.247375	2.97913
10466.4	0.247375	2.97913
10467.4	0.247375	2.97943
10468.4	0.247375	2.97882
10469.4	0.247375	2.97913
10470.4	0.247345	2.97821
10471.4	0.247345	2.97943
10472.4	0.247345	2.97852
10473.4	0.247345	2.97913
10474.4	0.247345	2.97882
10475.4	0.247345	2.97882
10476.4	0.247345	2.97821
10477.4	0.247345	2.97882
10478.4	0.247345	2.97852
10479.4	0.247345	2.97852
10480.4	0.247345	2.97852
10481.4	0.247345	2.97852
10482.4	0.247345	2.97882
10483.4	0.247345	2.97852
10484.4	0.247345	2.97882
10485.4	0.247345	2.97791
10486.4	0.247345	2.97882
10487.4	0.247345	2.97882
10488.4	0.247345	2.97913
10489.4	0.247375	2.97913
10490.4	0.247375	2.97852
10491.4	0.247375	2.97821
10492.4	0.247375	2.97943
10493.4	0.247375	2.97943
10494.4	0.247375	2.97913
10495.4	0.247375	2.97882
10496.4	0.247375	2.97913
10497.4	0.247375	2.97943
10498.4	0.247375	2.97913
10499.4	0.247375	2.97852
10500.4	0.247406	2.97882
10501.4	0.247406	2.97913
10502.4	0.247406	2.97821
10503.4	0.247406	2.97882
10504.4	0.247406	2.97913
10505.4	0.247406	2.97913
10506.4	0.247406	2.97913
10507.4	0.247406	2.97852
10508.4	0.247437	2.97852
10509.4	0.247437	2.97882
10510.4	0.247437	2.97943
10511.4	0.247437	2.97882
10512.4	0.247437	2.97852
10513.4	0.247467	2.97913
10514.4	0.247467	2.97882
10515.4	0.247467	2.97882
10516.4	0.247467	2.97791
10517.4	0.247467	2.97852
10518.4	0.247498	2.97913
10519.4	0.247498	2.97882
10520.4	0.247498	2.97882
10521.4	0.247498	2.97791
10522.4	0.247528	2.97852
10523.4	0.247528	2.97913
10524.4	0.247528	2.97852
10525.4	0.247528	2.97821
10526.4	0.247528	2.97943
10527.4	0.247559	2.97882
10528.4	0.247559	2.97852
10529.4	0.247559	2.97882
10530.4	0.247559	2.97852
10531.4	0.247589	2.97913
10532.4	0.247589	2.97882
10533.4	0.247589	2.97882
10534.4	0.24762	2.97943
10535.4	0.24762	2.97913
10536.4	0.24762	2.97852
10537.4	0.24762	2.97852
10538.4	0.24765	2.97882
10539.4	0.24765	2.97882
10540.4	0.24765	2.97852
10541.4	0.24765	2.97882
10542.4	0.247681	2.97913
10543.4	0.247681	2.97852
10544.4	0.247681	2.97913
10545.4	0.247711	2.97821
10546.4	0.247711	2.97882
10547.4	0.247711	2.97821
10548.4	0.247742	2.97913
10549.4	0.247742	2.97882
10550.4	0.247742	2.97852
10551.4	0.247772	2.97821
10552.4	0.247772	2.97852
10553.4	0.247772	2.97791
10554.4	0.247803	2.97882
10555.4	0.247803	2.97821
10556.4	0.247803	2.97821
10557.4	0.247803	2.97882
10558.4	0.247833	2.97882
10559.4	0.247833	2.97852
10560.4	0.247864	2.97882
10561.4	0.247864	2.97882
10562.4	0.247864	2.97943
10563.4	0.247894	2.97974
10564.4	0.247894	2.97852
10565.4	0.247894	2.97852
10566.4	0.247925	2.97852
10567.4	0.247925	2.97882
10568.4	0.247925	2.97882
10569.4	0.247955	2.97852
10570.4	0.247955	2.97882
10571.4	0.247955	2.97943
10572.4	0.247986	2.97852
10573.4	0.247986	2.97821
10574.4	0.247986	2.97852
10575.4	0.248016	2.97821
10576.4	0.248016	2.97882
10577.4	0.248047	2.97882
10578.4	0.248047	2.97882
10579.4	0.248047	2.97882
10580.4	0.248077	2.97882
10581.4	0.248077	2.97882
10582.4	0.248108	2.97882
10583.4	0.248108	2.97882
10584.4	0.248108	2.97913
10585.4	0.248138	2.97913
10586.4	0.248138	2.97852
10587.4	0.248138	2.97852
10588.4	0.248169	2.97821
10589.4	0.248169	2.97852
10590.4	0.248169	2.97913
10591.4	0.248199	2.97882
10592.4	0.248199	2.97913
10593.4	0.24823	2.97913
10594.4	0.24823	2.97882
10595.4	0.24823	2.97852
10596.4	0.24826	2.97974
10597.4	0.24826	2.97943
10598.4	0.248291	2.97882
10599.4	0.248291	2.97882
10600.4	0.248291	2.97882
10601.4	0.248322	2.97913
10602.4	0.248322	2.97852
10603.4	0.248322	2.97943
10604.4	0.248352	2.97913
10605.4	0.248352	2.97821
10606.4	0.248383	2.97791
10607.4	0.248383	2.97791
10608.4	0.248383	2.97913
10609.4	0.248413	2.97791
10610.4	0.248413	2.97852
10611.4	0.248413	2.97943
10612.4	0.248444	2.97852
10613.4	0.248444	2.97852
10614.4	0.248474	2.97882
10615.4	0.248474	2.97821
10616.4	0.248505	2.97882
10617.4	0.248505	2.97852
10618.4	0.248505	2.97913
10619.4	0.248535	2.97882
10620.4	0.248535	2.97913
10621.4	0.248566	2.97882
10622.4	0.248566	2.97943
10623.4	0.248596	2.97882
10624.4	0.248596	2.97821
10625.4	0.248596	2.97943
10626.4	0.248627	2.97821
10627.4	0.248627	2.97821
10628.4	0.248657	2.97821
10629.4	0.248657	2.97943
10630.4	0.248657	2.97821
10631.4	0.248688	2.97821
10632.4	0.248688	2.97913
10633.4	0.248718	2.97882
10634.4	0.248718	2.97852
10635.4	0.248749	2.97882
10636.4	0.248749	2.97882
10637.4	0.248779	2.97791
10638.4	0.248779	2.97791