File: Edgar/20230906/20230906/EC_measurement_WO3_in_H2SO4_1M_1/electrochromic_data/OCP_reference_optics
Time (s)	WE(1).Potential (V)	External(1).External 2 (V)
8.22486	-0.0592346	2.66846
9.22486	-0.0596924	2.66907
10.2249	-0.0591125	2.66815
11.2249	-0.0588074	2.66907
12.2249	-0.059021	2.66876
13.2249	-0.05859375	2.66785
14.2249	-0.0585632	2.66846
15.2249	-0.05859375	2.66785
16.2249	-0.0588074	2.66998
17.2249	-0.059021	2.66937
18.2249	-0.0591125	2.66907
19.2249	-0.0592651	2.66907
20.2249	-0.059082	2.66785
21.2249	-0.0581665	2.66937
22.2249	-0.059082	2.66785
23.2249	-0.0590515	2.66876
24.2249	-0.0585022	2.66876
25.2249	-0.0586243	2.66815
26.2249	-0.0559387	2.66785
27.2249	-0.0531006	2.66876
28.2249	-0.05859375	2.66968
29.2249	-0.0591125	2.66937
30.2249	-0.0597839	2.66815
31.2249	-0.0603638	2.66968
32.2249	-0.0596313	2.66846
33.2249	-0.0598145	2.66754
34.2249	-0.0602417	2.66876
35.2249	-0.0604553	2.66937
36.2249	-0.0600281	2.66754
37.2249	-0.0606995	2.66815