File: Edgar/20230906/20230906/EC_measurement_WO3_in_H2SO4_1M_1/electrochromic_data/OCP_1
Time (s)	WE(1).Potential (V)	External(1).External 2 (V)
3.21721	0.5859375	3.09692
4.21721	0.5859375	3.1015
5.21721	0.5859375	3.09814
6.21721	0.5859375	3.09967
7.21721	0.5859375	3.1012
8.21721	0.5859375	3.10272
9.21721	0.5859375	3.09937
10.2172	0.5859375	3.10089
11.2172	0.5859375	3.10059
12.2172	0.586243	3.10059
13.2172	0.586243	3.10089
14.2172	0.586243	3.10303
15.2172	0.586243	3.09753
16.2172	0.586243	3.10272
17.2172	0.586243	3.10455
18.2172	0.586243	3.1012
19.2172	0.586243	3.10181
20.2172	0.586243	3.08594
21.2172	0.586243	3.10211
22.2172	0.586243	3.09937
23.2172	0.586243	0.0879517
24.2172	0.586243	0.0884094
25.2172	0.586243	0.0905151
26.2172	0.586243	0.0852966
27.2172	0.586243	0.0904846
28.2172	0.586243	0.0907288
29.2172	0.586243	0.0899048
30.2172	0.586243	0.0882874
31.2172	0.586243	0.0888062
32.2172	0.586548	0.0900269
33.2172	0.586548	0.0898743
34.2172	0.586548	0.0913696
35.2172	0.586548	0.0883484
36.2172	0.586548	0.0900879
37.2172	0.586548	0.0901794
38.2172	0.586548	0.0895996
39.2172	0.586548	0.0874023
40.2172	0.586548	0.0888977
41.2172	0.586548	0.0880127
42.2172	0.586548	0.0853882
43.2172	0.586548	0.0880737
44.2172	0.586548	0.0904846
45.2172	0.586548	0.0838928
46.2172	0.586548	0.611572
47.2172	0.586548	3.09998
48.2172	0.586548	3.09784
49.2172	0.586548	3.10211
50.2172	0.586548	3.10211
51.2172	0.586548	3.10181
52.2172	0.586548	3.09875
53.2172	0.586548	3.10333
54.2172	0.586548	3.10181
55.2172	0.586548	3.10181
56.2172	0.586548	3.10089
57.2172	0.586853	3.09967
58.2172	0.586853	3.10089
59.2172	0.586853	3.09998
60.2172	0.586853	3.10181
61.2172	0.586853	3.10272
62.2172	0.586853	3.10089
63.2172	0.586853	3.10303
64.2172	0.586853	3.09906
65.2172	0.586853	3.1015
66.2172	0.586853	3.10394
67.2172	0.586853	3.10272
68.2172	0.586853	3.10028
69.2172	0.586853	3.10333
70.2172	0.586853	3.10059
71.2172	0.586853	3.10333
72.2172	0.586853	3.09723
73.2172	0.586853	3.10303
74.2172	0.586853	3.10181
75.2172	0.586853	3.10211
76.2172	0.586853	3.09784
77.2172	0.586853	3.10272
78.2172	0.586853	3.09814
79.2172	0.586853	3.10181
80.2172	0.586853	3.10242
81.2172	0.586853	3.10059
82.2172	0.586853	3.09967
83.2172	0.586853	3.1012
84.2172	0.586853	3.10303
85.2172	0.586853	3.10028
86.2172	0.586853	3.09906
87.2172	0.586853	3.1012
88.2172	0.586853	3.1015
89.2172	0.586853	3.10303
90.2172	0.586853	3.09967
91.2172	0.586853	3.1015
92.2172	0.586853	3.10333
93.2172	0.586853	3.1012
94.2172	0.586853	3.10089
95.2172	0.586853	3.09906
96.2172	0.586853	3.10242
97.2172	0.586853	3.10364
98.2172	0.586853	3.10333
99.2172	0.586853	3.09479
100.217	0.586853	3.10333
101.217	0.586853	3.09937
102.217	0.586853	3.09875
103.217	0.587158	3.10089
104.217	0.587158	3.09845
105.217	0.586853	3.10059
106.217	0.586853	3.10272
107.217	0.586853	3.09814
108.217	0.586853	3.09875
109.217	0.587158	3.1015
110.217	0.587158	3.10059
111.217	0.587158	3.10242
112.217	0.586853	3.09723
113.217	0.587158	3.10211
114.217	0.587158	3.0954
115.217	0.586853	3.1015
116.217	0.587158	3.10333
117.217	0.587158	3.1012
118.217	0.586853	3.10028
119.217	0.587158	3.10333
120.217	0.587158	3.10181
121.217	0.587158	3.10181
122.217	0.587158	3.10028
123.217	0.586853	3.10303
124.217	0.586853	3.10059
125.217	0.586853	3.09753
126.217	0.587158	3.10211
127.217	0.586853	3.09845
128.217	0.586853	3.1015
129.217	0.586853	3.09875
130.217	0.586853	3.10272
131.217	0.586853	3.1012
132.217	0.586853	3.0777
133.217	0.586853	3.09845
134.217	0.586853	3.10059
135.217	0.586853	3.10211
136.217	0.586853	3.09998
137.217	0.586853	3.10211
138.217	0.586853	3.09875
139.217	0.586853	3.09875
140.217	0.586853	3.10181
141.217	0.586853	3.10272
142.217	0.586853	3.10028
143.217	0.586853	3.09937
144.217	0.586853	3.08258
145.217	0.586853	3.10059
146.217	0.586853	3.08197
147.217	0.586853	3.08075
148.217	0.586853	3.09814
149.217	0.586853	3.10303
150.217	0.586853	3.10028
151.217	0.586853	3.10181
152.217	0.586853	3.09631
153.217	0.586853	3.08228
154.217	0.586853	3.08075
155.217	0.586853	3.08167
156.217	0.586853	3.08319
157.217	0.586853	3.08014
158.217	0.586853	3.07739
159.217	0.586853	3.08014
160.217	0.586853	3.08258
161.217	0.586853	3.08167
162.217	0.586853	3.07861
163.217	0.586853	3.08105
164.217	0.586853	3.08228
165.217	0.586853	3.09875
166.217	0.586853	3.08441
167.217	0.586853	3.08289
168.217	0.586853	3.08197
169.217	0.586853	3.08014
170.217	0.586853	3.0835
171.217	0.586853	3.0838
172.217	0.586853	3.08014
173.217	0.586853	3.08167
174.217	0.586853	3.08197
175.217	0.586853	3.08319
176.217	0.586853	3.08258
177.217	0.586853	3.08197
178.217	0.586853	3.08075
179.217	0.586853	3.08289
180.217	0.586853	3.08014
181.217	0.586853	3.08258
182.217	0.586853	3.08167