File: Edgar/20230906/20230906/EC_measurement_WO3_in_H2SO4_1M_1/electrochromic_data/OCP_3
Time (s)	WE(1).Potential (V)	External(1).External 2 (V)
11646.3	-0.499481	1.17828
11647.3	-0.499054	1.17737
11648.3	-0.497345	1.19965
11649.3	-0.495331	1.19843
11650.3	-0.493225	1.19751
11651.3	-0.49115	1.19934
11652.3	-0.489105	1.21674
11653.3	-0.487152	1.21643
11654.3	-0.485291	1.21643
11655.3	-0.48349	1.21826
11656.3	-0.481781	1.21704
11657.3	-0.480103	1.21887
11658.3	-0.478516	1.23505
11659.3	-0.477264	1.23596
11660.3	-0.475769	1.23505
11661.3	-0.474304	1.23657
11662.3	-0.472931	1.23566
11663.3	-0.471588	1.23657
11664.3	-0.470245	1.25488
11665.3	-0.468994	1.25519
11666.3	-0.467743	1.25366
11667.3	-0.466553	1.25702
11668.3	-0.465393	1.25488
11669.3	-0.464233	1.25427
11670.3	-0.463135	1.27563
11671.3	-0.462006	1.27472
11672.3	-0.4609375	1.27625
11673.3	-0.4599	1.27319
11674.3	-0.458893	1.27411
11675.3	-0.457886	1.27472
11676.3	-0.456879	1.27472
11677.3	-0.455933	1.29456
11678.3	-0.454987	1.27716
11679.3	-0.454041	1.29547
11680.3	-0.453125	1.29425
11681.3	-0.45224	1.29517
11682.3	-0.451355	1.29333
11683.3	-0.45047	1.29517
11684.3	-0.449646	1.29211
11685.3	-0.448761	1.29395
11686.3	-0.447937	1.31348
11687.3	-0.447113	1.31409
11688.3	-0.44632	1.31226
11689.3	-0.445526	1.31378
11690.3	-0.444855	1.3147
11691.3	-0.444092	1.3147
11692.3	-0.443329	1.31348
11693.3	-0.442566	1.31348
11694.3	-0.441833	1.33423
11695.3	-0.441071	1.33423
11696.3	-0.440369	1.33301
11697.3	-0.439636	1.3324
11698.3	-0.438904	1.33301
11699.3	-0.438171	1.33423
11700.3	-0.4375	1.33057
11701.3	-0.436829	1.34949
11702.3	-0.436127	1.35559
11703.3	-0.435455	1.33392
11704.3	-0.434814	1.3501
11705.3	-0.434143	1.3504
11706.3	-0.433502	1.35193
11707.3	-0.432831	1.35468
11708.3	-0.43219	1.35162
11709.3	-0.43158	1.35254
11710.3	-0.430939	1.35437
11711.3	-0.430328	1.35529
11712.3	-0.4296875	1.35468
11713.3	-0.429108	1.37299
11714.3	-0.428497	1.3739
11715.3	-0.427887	1.37207
11716.3	-0.427277	1.37177
11717.3	-0.426697	1.37512
11718.3	-0.426086	1.37329
11719.3	-0.425507	1.37451
11720.3	-0.424927	1.37451
11721.3	-0.424347	1.37268
11722.3	-0.423767	1.39313
11723.3	-0.423218	1.39252
11724.3	-0.422638	1.39404
11725.3	-0.422089	1.39313
11726.3	-0.421539	1.39282
11727.3	-0.42099	1.3916
11728.3	-0.420441	1.39069
11729.3	-0.419891	1.38916
11730.3	-0.419373	1.39465
11731.3	-0.418823	1.39343
11732.3	-0.418274	1.39252
11733.3	-0.417755	1.41296
11734.3	-0.417206	1.39252
11735.3	-0.416687	1.41083
11736.3	-0.416168	1.41113
11737.3	-0.415649	1.41266
11738.3	-0.415131	1.41327
11739.3	-0.414612	1.41205
11740.3	-0.414124	1.4093
11741.3	-0.413635	1.41266
11742.3	-0.413116	1.41113
11743.3	-0.412598	1.41296
11744.3	-0.412079	1.41296
11745.3	-0.411591	1.43158
11746.3	-0.411102	1.43127
11747.3	-0.410614	1.42975
11748.3	-0.410095	1.4325
11749.3	-0.409607	1.43066
11750.3	-0.409119	1.43188
11751.3	-0.40863	1.43066
11752.3	-0.408142	1.43188
11753.3	-0.407654	1.43188
11754.3	-0.407196	1.42975
11755.3	-0.406708	1.42944
11756.3	-0.40625	1.43188
11757.3	-0.405762	1.45172
11758.3	-0.405304	1.4505
11759.3	-0.404816	1.4502
11760.3	-0.404358	1.44989
11761.3	-0.4039	1.44958
11762.3	-0.403442	1.44928
11763.3	-0.402954	1.4502
11764.3	-0.402496	1.44989
11765.3	-0.402039	1.44867
11766.3	-0.401581	1.44867
11767.3	-0.401123	1.46851
11768.3	-0.400665	1.4679
11769.3	-0.400208	1.46606
11770.3	-0.39975	1.46698
11771.3	-0.399261	1.46606
11772.3	-0.398834	1.47095
11773.3	-0.398376	1.46912
11774.3	-0.397919	1.4679
11775.3	-0.397461	1.46881
11776.3	-0.397034	1.4682
11777.3	-0.396576	1.46912
11778.3	-0.396149	1.46973
11779.3	-0.395691	1.48895
11780.3	-0.395233	1.48895
11781.3	-0.394806	1.4856
11782.3	-0.394348	1.4856
11783.3	-0.393921	1.48895
11784.3	-0.393463	1.48468
11785.3	-0.393036	1.48865
11786.3	-0.392609	1.48926
11787.3	-0.392151	1.48804
11788.3	-0.391724	1.48743
11789.3	-0.391296	1.48743
11790.3	-0.390869	1.48682
11791.3	-0.390442	1.48834
11792.3	-0.390015	1.48834
11793.3	-0.389587	1.50787
11794.3	-0.38916	1.50879
11795.3	-0.388733	1.50787
11796.3	-0.388306	1.5094
11797.3	-0.387878	1.51154
11798.3	-0.387451	1.50696
11799.3	-0.387024	1.50909
11800.3	-0.386597	1.50543
11801.3	-0.3862	1.50818
11802.3	-0.385742	1.50757
11803.3	-0.385315	1.50726
11804.3	-0.384918	1.5274
11805.3	-0.384491	1.5387
11806.3	-0.384094	1.50757
11807.3	-0.383667	1.50665
11808.3	-0.38324	1.52649
11809.3	-0.3828125	1.52832
11810.3	-0.382385	1.52527
11811.3	-0.381989	1.5271
11812.3	-0.381561	1.5274
11813.3	-0.381165	1.52802
11814.3	-0.380737	1.52954
11815.3	-0.380341	1.52832
11816.3	-0.379944	1.52771
11817.3	-0.379517	1.52863
11818.3	-0.37912	1.52802
11819.3	-0.378723	1.52924
11820.3	-0.378296	1.54785
11821.3	-0.377869	1.54877
11822.3	-0.377441	1.54572
11823.3	-0.377045	1.54785
11824.3	-0.376648	1.54755
11825.3	-0.376221	1.56799
11826.3	-0.375824	1.56219
11827.3	-0.375427	1.56647
11828.3	-0.375031	1.56555
11829.3	-0.374634	1.56799
11830.3	-0.374237	1.56738
11831.3	-0.37381	1.56616
11832.3	-0.373413	1.56494
11833.3	-0.373016	1.56494
11834.3	-0.37262	1.56525
11835.3	-0.372223	1.56433
11836.3	-0.371826	1.58539
11837.3	-0.37149	1.58508
11838.3	-0.371124	1.58691
11839.3	-0.370728	1.58295
11840.3	-0.370331	1.58569
11841.3	-0.369934	1.58508
11842.3	-0.369537	1.58264
11843.3	-0.36911	1.58386
11844.3	-0.368713	1.58264
11845.3	-0.368317	1.58508
11846.3	-0.36792	1.58691
11847.3	-0.367523	1.60492
11848.3	-0.367126	1.60553
11849.3	-0.36673	1.6037
11850.3	-0.366333	1.60461
11851.3	-0.365936	1.60187
11852.3	-0.36554	1.60522
11853.3	-0.365173	1.60522
11854.3	-0.364777	1.60461
11855.3	-0.36438	1.60492
11856.3	-0.363983	1.60522
11857.3	-0.363586	1.60492
11858.3	-0.36319	1.60522
11859.3	-0.362793	1.62323
11860.3	-0.362396	1.6037
11861.3	-0.36203	1.60583
11862.3	-0.361633	1.60522
11863.3	-0.361237	1.60431
11864.3	-0.36087	1.62445
11865.3	-0.360504	1.62231
11866.3	-0.360107	1.61987
11867.3	-0.359711	1.62354