File: Edgar/20230810 (1)/WO3_ITO_20230717_G/CA_2
Time (s)	WE(1).Potential (V)	WE(1).Current (A)
34.4131	-0.699371	-0.00398743
35.4131	-0.699646	-0.00389648
36.4131	-0.699249	-0.00391998
37.4131	-0.699585	-0.0038324
38.4131	-0.699463	-0.00373932
39.4131	-0.698975	-0.00364746
40.4131	-0.699554	-0.00355835
41.4131	-0.699402	-0.00347229
42.4131	-0.699432	-0.00338928
43.4131	-0.699585	-0.00330933
44.4131	-0.699524	-0.00323303
45.4131	-0.698975	-0.00315979
46.4131	-0.699188	-0.0030899
47.4131	-0.699646	-0.00302307
48.4131	-0.699493	-0.00295898
49.4131	-0.698975	-0.00289764
50.4131	-0.699127	-0.00283966
51.4131	-0.699249	-0.00278442
52.4131	-0.699646	-0.00273193
53.4131	-0.699249	-0.00268188
54.4131	-0.699432	-0.00263428
55.4131	-0.699463	-0.00258942
56.4131	-0.699066	-0.00254608
57.4131	-0.699127	-0.00250549
58.4131	-0.699097	-0.00246765
59.4131	-0.699066	-0.00243103
60.4131	-0.699097	-0.00239655
61.4131	-0.699036	-0.00236389
62.4131	-0.699097	-0.00233337
63.4131	-0.699554	-0.00230469
64.4131	-0.699127	-0.00227722
65.4131	-0.699524	-0.00225098
66.4131	-0.699188	-0.00222717
67.4131	-0.699585	-0.00220459
68.4131	-0.699127	-0.00218292
69.4131	-0.699554	-0.00216309
70.4131	-0.699097	-0.00214417
71.4131	-0.699554	-0.00212585
72.4131	-0.699127	-0.00210876
73.4131	-0.699554	-0.00209259
74.4131	-0.699036	-0.00207672
75.4131	-0.699677	-0.00206177
76.4131	-0.699127	-0.00204773
77.4131	-0.699371	-0.002034
78.4131	-0.699463	-0.00202057
79.4131	-0.699371	-0.00200806
80.4131	-0.699097	-0.00199524
81.4131	-0.699036	-0.00198303
82.4131	-0.699127	-0.00197083
83.4131	-0.699554	-0.00195923
84.4131	-0.699402	-0.00194794
85.4131	-0.699066	-0.00193634
86.4131	-0.699585	-0.00192505
87.4131	-0.699127	-0.00191406
88.4131	-0.699127	-0.00190338
89.4131	-0.699188	-0.0018927
90.4131	-0.699219	-0.00188202
91.4131	-0.699554	-0.00187164
92.4131	-0.699493	-0.00186096
93.4131	-0.699341	-0.00185028
94.4131	-0.699493	-0.0018396
95.4131	-0.699402	-0.00182953
96.4131	-0.699493	-0.00181946
97.4131	-0.699554	-0.00180939
98.4131	-0.699463	-0.00179932
99.4131	-0.699188	-0.00178925
100.413	-0.69931	-0.00177917
101.413	-0.699615	-0.00176941
102.413	-0.699524	-0.00175934
103.413	-0.69928	-0.00174927
104.413	-0.699615	-0.00174011
105.413	-0.699097	-0.00173035
106.413	-0.699524	-0.00172089
107.413	-0.699493	-0.00171143
108.413	-0.699066	-0.00170197
109.413	-0.699677	-0.0016925
110.413	-0.699463	-0.00168335
111.413	-0.699371	-0.00167297
112.413	-0.699371	-0.00166412
113.413	-0.699493	-0.00165436
114.413	-0.69931	-0.00164612
115.413	-0.699677	-0.00163757
116.413	-0.699646	-0.00162933
117.413	-0.699554	-0.00162079
118.413	-0.698975	-0.00161224
119.413	-0.699158	-0.0016037
120.413	-0.699646	-0.00159515
121.413	-0.699615	-0.00158661
122.413	-0.699615	-0.00157837
123.413	-0.699249	-0.00156982
124.413	-0.699188	-0.00156158
125.413	-0.699219	-0.00155304
126.413	-0.699646	-0.0015448
127.413	-0.699493	-0.00153656
128.413	-0.699615	-0.00152832
129.413	-0.699127	-0.00152039
130.413	-0.699127	-0.00151215
131.413	-0.699646	-0.00150421
132.413	-0.699707	-0.00149597
133.413	-0.699463	-0.00148834
134.413	-0.699707	-0.00148041
135.413	-0.699677	-0.00147278
136.413	-0.699127	-0.00146484
137.413	-0.699371	-0.00145721
138.413	-0.699585	-0.00144958
139.413	-0.699463	-0.00144165
140.413	-0.699677	-0.00143402
141.413	-0.699097	-0.0014267
142.413	-0.699249	-0.00141907
143.413	-0.699188	-0.00141174
144.413	-0.699158	-0.00140411
145.413	-0.699585	-0.00139679
146.413	-0.699493	-0.00138947
147.413	-0.699341	-0.00138214
148.413	-0.699249	-0.00137482
149.413	-0.699341	-0.00136749
150.413	-0.699432	-0.00136017
151.413	-0.699158	-0.00135315
152.413	-0.699188	-0.00134583
153.413	-0.699249	-0.00133881
154.413	-0.699707	-0.00133179
155.413	-0.69928	-0.00132446
156.413	-0.699524	-0.00131775
157.413	-0.699432	-0.00131042
158.413	-0.699463	-0.00130371
159.413	-0.699585	-0.001297
160.413	-0.699066	-0.00128998
161.413	-0.699432	-0.00128326
162.413	-0.699158	-0.00127655
163.413	-0.699371	-0.00126953
164.413	-0.699219	-0.00126282
165.413	-0.699188	-0.0012561
166.413	-0.699585	-0.00124969
167.413	-0.699677	-0.00124298
168.413	-0.699646	-0.00123657
169.413	-0.699402	-0.00123016
170.413	-0.699646	-0.00122375
171.413	-0.699646	-0.00121704
172.413	-0.699249	-0.00121063
173.413	-0.699158	-0.00120422
174.413	-0.699707	-0.00119781
175.413	-0.699493	-0.00119171
176.413	-0.699158	-0.0011853
177.413	-0.699371	-0.0011792
178.413	-0.699371	-0.00117279
179.413	-0.699127	-0.00116669
180.413	-0.699493	-0.00116058
181.413	-0.699432	-0.00115479
182.413	-0.699615	-0.00114868
183.413	-0.699615	-0.00114258
184.413	-0.699493	-0.00113678
185.413	-0.699615	-0.00113098
186.413	-0.699188	-0.00112518
187.413	-0.69931	-0.00111908
188.413	-0.69928	-0.00111359
189.413	-0.699249	-0.00110779
190.413	-0.699036	-0.00110199
191.413	-0.699524	-0.0010965
192.413	-0.69931	-0.0010907
193.413	-0.69928	-0.00108521
194.413	-0.699219	-0.00107971
195.413	-0.699615	-0.00107391
196.413	-0.699615	-0.00106812
197.413	-0.699188	-0.00106293
198.413	-0.699402	-0.00105743
199.413	-0.699127	-0.00105194
200.413	-0.699432	-0.00104675
201.413	-0.699249	-0.00103943
202.413	-0.699615	-0.00103577
203.413	-0.699585	-0.00103088
204.413	-0.699188	-0.0010257
205.413	-0.699524	-0.00102081
206.413	-0.699066	-0.00101593
207.413	-0.699615	-0.00101105
208.413	-0.699066	-0.00100586
209.413	-0.699371	-0.00100098
210.413	-0.699554	-0.000997009
211.413	-0.699493	-0.000992126
212.413	-0.699341	-0.000987244
213.413	-0.699097	-0.000982361
214.413	-0.698914	-0.000977478
215.413	-0.699036	-0.0009729
216.413	-0.69931	-0.000968018
217.413	-0.699036	-0.00096344
218.413	-0.698914	-0.000959167
219.413	-0.698944	-0.000954285
220.413	-0.699554	-0.000949707
221.413	-0.699554	-0.000945129
222.413	-0.699005	-0.000940857
223.413	-0.699371	-0.000936279
224.413	-0.699463	-0.000931702
225.413	-0.69931	-0.000927429
226.413	-0.699158	-0.000922852
227.413	-0.699402	-0.000918579
228.413	-0.698975	-0.000914001
229.413	-0.699066	-0.000910034
230.413	-0.699066	-0.000905762
231.413	-0.699036	-0.000901489
232.413	-0.699005	-0.000897522
233.413	-0.698975	-0.00089325
234.413	-0.69928	-0.000888977
235.413	-0.699524	-0.00088501
236.413	-0.699493	-0.000880737
237.413	-0.699585	-0.000877075
238.413	-0.699249	-0.000873108
239.413	-0.699463	-0.000869141
240.413	-0.699188	-0.000864868
241.413	-0.69931	-0.000861206
242.413	-0.699493	-0.000857239
243.413	-0.698944	-0.000853577
244.413	-0.699036	-0.000849915
245.413	-0.699585	-0.000846252
246.413	-0.699341	-0.00084259
247.413	-0.69931	-0.000838928
248.413	-0.699432	-0.000835266
249.413	-0.699341	-0.000831604
250.413	-0.699432	-0.000827942
251.413	-0.69931	-0.000824585
252.413	-0.698975	-0.000820923
253.413	-0.699249	-0.000817566
254.413	-0.69931	-0.000813904
255.413	-0.699554	-0.000810547
256.413	-0.699432	-0.00080719
257.413	-0.698975	-0.000803833
258.413	-0.698975	-0.000800476
259.413	-0.699158	-0.000797119
260.413	-0.699005	-0.000794067
261.413	-0.699341	-0.00079071
262.413	-0.699554	-0.000787659
263.413	-0.699585	-0.000784607
264.413	-0.699585	-0.00078125
265.413	-0.69931	-0.000778198
266.413	-0.699554	-0.000775146
267.413	-0.699066	-0.000772095
268.413	-0.699432	-0.000769043
269.413	-0.698914	-0.000765991
270.413	-0.698944	-0.000762939
271.413	-0.699585	-0.000760193
272.413	-0.699493	-0.000757141
273.413	-0.699005	-0.000754089
274.413	-0.699554	-0.000751343
275.413	-0.699066	-0.000748291
276.413	-0.699371	-0.000745544
277.413	-0.698883	-0.000742798
278.413	-0.699493	-0.000740051
279.413	-0.699615	-0.000737305
280.413	-0.699432	-0.000734558
281.413	-0.699615	-0.000732117
282.413	-0.69931	-0.00072937
283.413	-0.699554	-0.000726624
284.413	-0.699097	-0.000724182
285.413	-0.699249	-0.00072113
286.413	-0.698944	-0.000718994
287.413	-0.699188	-0.000716553
288.413	-0.699554	-0.000713806
289.413	-0.699493	-0.000711365
290.413	-0.699615	-0.000708923
291.413	-0.699005	-0.000706482
292.413	-0.699432	-0.000704041
293.413	-0.699219	-0.000701599
294.413	-0.699036	-0.000699158
295.413	-0.699585	-0.000696716
296.413	-0.699341	-0.000694275
297.413	-0.699402	-0.000692139
298.413	-0.699432	-0.000689697
299.413	-0.699585	-0.000687256
300.413	-0.699371	-0.000684814
301.413	-0.699585	-0.000682678
302.413	-0.699066	-0.000680542
303.413	-0.699249	-0.000678101
304.413	-0.699615	-0.000675964
305.413	-0.699463	-0.000673828
306.413	-0.699341	-0.000671692
307.413	-0.699249	-0.000669556
308.413	-0.699127	-0.000667419
309.413	-0.698944	-0.000665283
310.413	-0.699066	-0.000663147
311.413	-0.698883	-0.000661316
312.413	-0.699158	-0.000659485
313.413	-0.699005	-0.000657349
314.413	-0.699646	-0.000655518
315.413	-0.699036	-0.000653381
316.413	-0.699097	-0.00065155
317.413	-0.699005	-0.000649719
318.413	-0.698944	-0.000647888
319.413	-0.699036	-0.000645752
320.413	-0.699066	-0.000643616
321.413	-0.699341	-0.00064209
322.413	-0.698944	-0.000640259
323.413	-0.699524	-0.000638428
324.413	-0.698944	-0.000636597
325.413	-0.699036	-0.000634766
326.413	-0.699066	-0.000632935
327.413	-0.698975	-0.000631104
328.413	-0.699036	-0.000629578
329.413	-0.699066	-0.000627747
330.413	-0.698975	-0.000625916
331.413	-0.699005	-0.00062439
332.413	-0.699005	-0.000622253
333.413	-0.699188	-0.000620728
334.313	-0.699524	-0.000619202