File: Edgar/20230810 (1)/WO3_ITO_20230717_G/OCP_3
Time (s)	WE(1).Potential (V)
335.324	-0.583191
337.324	-0.531311
339.324	-0.499023
341.324	-0.473206
343.324	-0.450714
345.324	-0.431702
347.324	-0.416382
349.324	-0.403473
351.324	-0.391968
353.324	-0.381592
355.324	-0.37207
357.324	-0.36322
359.324	-0.355011
361.324	-0.34726
363.324	-0.339874
365.324	-0.332733
367.324	-0.325867
369.324	-0.319183
371.324	-0.312714
373.324	-0.306458
375.324	-0.300354
377.324	-0.294403
379.324	-0.288605
381.324	-0.282959
383.324	-0.277466
385.324	-0.272156
387.324	-0.266998
389.324	-0.262054
391.324	-0.257172
393.324	-0.252502
395.324	-0.247955
397.324	-0.243561
399.324	-0.239319
401.324	-0.235107
403.324	-0.231049
405.324	-0.227081
407.324	-0.223206
409.324	-0.219421
411.324	-0.215698
413.324	-0.211975
415.324	-0.208282
417.324	-0.20462
419.324	-0.200958
421.324	-0.197174
423.324	-0.193329
425.324	-0.189453
427.324	-0.185455
429.324	-0.181274
431.324	-0.17691
433.324	-0.172394
435.324	-0.167694
437.324	-0.162781
439.324	-0.157623
441.324	-0.152252
443.324	-0.146698
445.324	-0.1409
447.324	-0.134888
449.324	-0.128601
451.324	-0.122101
453.324	-0.115417
455.324	-0.108551
457.324	-0.1015625
459.324	-0.0945435
461.324	-0.0875854
463.324	-0.080658
465.324	-0.0738831
467.324	-0.0672607
469.324	-0.0608215
471.324	-0.0545959
473.324	-0.0485779
475.324	-0.0427887
477.324	-0.037207
479.324	-0.0317749
481.324	-0.0264496
483.324	-0.0212341
485.324	-0.0161469
487.324	-0.0112152
489.324	-0.00645447
491.324	-0.0019104
493.324	0.00236511
495.324	0.00635071
497.324	0.010022
499.324	0.013382
501.324	0.0164276
503.324	0.0191833
505.324	0.0216492
507.324	0.0238922
509.324	0.0258698
511.324	0.0276276
513.324	0.0292023
515.324	0.0306244
517.324	0.0318878
519.324	0.0330627
521.324	0.0341553
523.324	0.0351746
525.324	0.0361389
527.324	0.0371033
529.324	0.0380798
531.324	0.0390869
533.324	0.0401489
535.324	0.0412537
537.324	0.0424164
539.324	0.0436951
541.324	0.0450195
543.324	0.046463
545.324	0.0480194
547.324	0.0496826
549.324	0.0514221
551.324	0.0532227
553.324	0.0550842
555.324	0.0570374
557.324	0.059082
559.324	0.0611572
561.324	0.063324
563.324	0.0655212
565.324	0.0677795
567.324	0.0700684
569.324	0.0723572
571.324	0.0746765
573.324	0.0770264
575.324	0.0793762
577.324	0.0816956
579.324	0.0840454
581.324	0.0863342
583.324	0.088623
585.324	0.0909119
587.324	0.0931396
589.324	0.0953369
591.324	0.0975037
593.324	0.0996399
595.324	0.101715
597.324	0.10376
599.324	0.105743
601.324	0.107697
603.324	0.109589
605.324	0.11145
607.324	0.11322
609.324	0.11499
611.324	0.116699
613.324	0.118317
615.324	0.119934
617.324	0.12146
619.324	0.122955
621.324	0.12442
623.324	0.125763
625.324	0.127136
627.324	0.128479
629.324	0.129761
631.324	0.130798
633.324	0.132202
635.324	0.133392
637.324	0.134552
639.324	0.135681
641.324	0.136719
643.324	0.137726
645.324	0.138733
647.324	0.139679
649.324	0.140625
651.324	0.141541
653.324	0.142395
655.324	0.14328
657.324	0.144135
659.324	0.144928
661.324	0.145691
663.324	0.146454
665.324	0.147217
667.324	0.147949
669.324	0.148651
671.324	0.149323
673.324	0.149963
675.324	0.150574
677.324	0.151215
679.324	0.151733
681.324	0.152435
683.324	0.152985
685.324	0.153534
687.324	0.154114
689.324	0.154663
691.324	0.155182
693.324	0.155701
695.324	0.155975
697.324	0.156494
699.324	0.156982
701.324	0.157501
703.324	0.15799
705.324	0.158508
707.324	0.159027
709.324	0.159485
711.324	0.159973
713.324	0.160461
715.324	0.160919
717.324	0.161346
719.324	0.161743
721.324	0.16214
723.324	0.162537
725.324	0.162872
727.324	0.163208
729.324	0.163513
731.324	0.163818
733.324	0.164154
735.324	0.164429
737.324	0.164703
739.324	0.164978
741.324	0.165253
743.324	0.165527
745.324	0.165833
747.324	0.166107
749.324	0.166382
751.324	0.166656
753.324	0.166931
754.324	0.167053