File: Edgar/20230810 (1)/WO3_ITO_20230717_G/OCP_1
Time (s)	WE(1).Potential (V)
3.14623	0.501099
4.14623	0.502625
5.14623	0.50415
6.14623	0.505371
7.14623	0.506897
8.14623	0.508118
9.14623	0.509338
10.1462	0.510559
11.1462	0.51178
12.1462	0.513
13.1462	0.514221
14.1462	0.515442
15.1462	0.516663
16.1462	0.517883
17.1462	0.519104
18.1462	0.52002
19.1462	0.52063
20.1462	0.521851
21.1462	0.522766
22.1462	0.523682
23.1462	0.524597
24.1462	0.525208
25.1462	0.526123
26.1462	0.527344
27.1462	0.528259
28.1462	0.529175
29.1462	0.529785
30.1462	0.530701
31.1462	0.531616
32.1462	0.532532