File: Edgar/20240515/20240515/EC_measurements/Sample_20240502_B/EIS/data/EIS_WO3_ITO_20240502_B_0p2V_vs_ref
Frequency (Hz)	Z' (Ω)	-Z'' (Ω)	Z (Ω)	-Phase (°)	Time (s)
10000	446.089	34.2745	447.404	4.39359	318.426
7943.3	300.671	24.7145	301.685	4.69903	321.176
6309.6	301.765	22.3723	302.593	4.24005	322.251
5011.9	302.764	20.9166	303.486	3.95202	323.416
3981.1	303.914	20.2511	304.588	3.81222	324.586
3162.3	305.21	20.2685	305.883	3.79933	325.741
2511.9	306.639	20.9483	307.354	3.90813	326.911
1995.3	308.181	22.2245	308.982	4.12475	328.082
1584.9	309.971	24.1324	310.909	4.45173	329.222
1258.9	311.804	26.7872	312.953	4.91024	330.367
1000	314.249	29.9402	315.672	5.44245	331.542
794.33	316.768	34.0098	318.589	6.12809	332.802
630.96	319.679	38.9252	322.041	6.94234	333.952
501.19	323.003	44.861	326.104	7.90706	335.132
398.11	326.702	52.071	330.825	9.05585	336.267
316.23	330.953	60.6032	336.456	10.3769	337.442
251.19	335.841	70.9058	343.244	11.9217	338.637
199.53	341.427	83.2058	351.419	13.696	339.807
158.49	347.379	97.8526	360.897	15.7319	341.002
125.89	353.966	115.176	372.233	18.0242	342.277
100	361.699	136.342	386.543	20.6539	343.502
79.433	369.613	162.014	403.562	23.6694	344.772
63.096	378.191	191.579	423.947	26.8653	346.097
50.119	388.366	232.801	452.796	30.94	347.322
39.811	399.519	281.661	488.824	35.1838	356.272
31.623	414.445	343.018	537.983	39.6131	357.742
25.119	433.703	418.651	602.799	43.9883	359.162
19.953	459.774	512.221	688.304	48.0886	360.897
15.849	497.452	625.278	799.018	51.4953	362.687
12.589	550.648	760.9	939.245	54.1075	364.512
10	623.711	919.368	1110.97	55.8465	366.647
7.9433	720.816	1100.3	1315.38	56.7708	368.812
6.3096	848.202	1302.93	1554.7	56.9361	372.847
5.0119	1000.69	1516.25	1816.7	56.5762	376.077
3.9811	1180.56	1748.79	2109.97	55.9779	378.252
3.1623	1377.51	1997.54	2426.46	55.4098	380.652
2.5119	1589.59	2275.31	2775.58	55.0609	383.118
1.9953	1814.98	2593.78	3165.73	55.0178	385.663
1.5849	2049.38	2969.75	3608.24	55.3911	388.218
1.2589	2294.71	3426.17	4123.63	56.1875	390.908
1	2557.48	3972.36	4724.44	57.2258	394.018
0.79433	2849.85	4639.53	5444.9	58.4395	397.148
0.63096	3176.37	5457.34	6314.42	59.799	400.533
0.50119	3536.98	6455.58	7361.03	61.2819	404.248
0.39811	3960.14	7682.82	8643.4	62.731	408.318
0.31623	4477.09	9201.42	10232.8	64.054	412.973
0.25119	5089.98	11041.8	12158.5	65.2516	418.288
0.19953	5850.79	13297	14527.3	66.2501	424.423
0.15849	6866.98	16053.3	17460.3	66.8406	431.498
0.12589	8170.62	19339	20994.1	67.0962	439.939
0.1	9822.51	23386.2	25365.3	67.217	449.994
0.079433	12230.6	27999.1	30553.8	66.4033	475.499
0.063096	15242.5	33852.4	37125.8	65.7597	490.125
0.050119	19403.7	40359	44781.2	64.3228	508.07
0.039811	25145.9	47619.9	53851.3	62.1635	530.17
0.031623	32838.5	55618.1	64589	59.4412	557.421
0.025119	42888	63752.6	76836	56.0703	591.186
0.019953	55781.5	71258.7	90495.2	51.946	633.062
0.015849	70666	77010.2	104519	47.4599	685.333
0.012589	88267.5	80161.8	119235	42.2447	750.574
0.01	105869	79566	132435	36.9266	832.171