File: Edgar/20240515/20240515/EC_measurements/Sample_20240502_B/EIS/data/EIS_WO3_ITO_20240502_B_m0p6V_vs_ref
Frequency (Hz)	Z' (Ω)	-Z'' (Ω)	Z (Ω)	-Phase (°)	Time (s)
10000	287.413	23.2301	288.35	4.62087	1240.77
7943.3	288.029	19.1488	288.665	3.80354	1241.86
6309.6	288.595	15.941	289.035	3.16161	1243.04
5011.9	289.038	13.4459	289.351	2.66344	1244.22
3981.1	289.488	11.5112	289.717	2.27711	1245.38
3162.3	289.905	10.0405	290.079	1.98358	1246.54
2511.9	290.361	8.94349	290.499	1.76423	1247.73
1995.3	290.992	8.14922	291.106	1.60415	1248.9
1584.9	291.374	7.59415	291.473	1.49297	1250.03
1258.9	292	7.08101	292.086	1.38915	1251.18
1000	292.614	7.07464	292.699	1.38499	1252.35
794.33	293.256	7.07227	293.341	1.3815	1253.63
630.96	293.838	7.13837	293.924	1.39165	1254.79
501.19	294.623	7.42257	294.717	1.44317	1255.97
398.11	295.331	7.77352	295.433	1.50776	1257.12
316.23	296.48	8.20918	296.594	1.58605	1258.3
251.19	297.281	8.72445	297.409	1.681	1259.5
199.53	298.581	9.3323	298.727	1.79022	1260.67
158.49	299.8	10.2698	299.976	1.96193	1261.87
125.89	301.16	10.9734	301.36	2.08677	1263.11
100	303.062	11.8384	303.294	2.23699	1264.35
79.433	304.759	12.8081	305.028	2.40656	1265.62
63.096	307.155	12.2293	307.398	2.28002	1266.94
50.119	308.81	14.221	309.138	2.63666	1276.67
39.811	311.091	14.9444	311.449	2.7503	1285.54
31.623	313.576	15.3234	313.95	2.79762	1287.01
25.119	315.692	15.8324	316.089	2.87106	1288.43
19.953	317.796	16.5515	318.227	2.98139	1290.18
15.849	319.934	17.0865	320.39	3.05705	1291.96
12.589	322.285	18.0034	322.788	3.19732	1293.78
10	324.284	18.9222	324.835	3.33947	1295.93
7.9433	326.682	20.2549	327.309	3.54791	1298.1
6.3096	328.707	21.7229	329.424	3.78095	1300.29
5.0119	331.024	23.6825	331.87	4.09216	1302.59
3.9811	333.484	25.9731	334.494	4.45345	1304.92
3.1623	335.922	28.777	337.152	4.89633	1307.33
2.5119	338.805	32.2466	340.336	5.43689	1309.79
1.9953	341.685	36.6418	343.644	6.12094	1312.32
1.5849	344.822	41.5957	347.322	6.87833	1314.95
1.2589	348.349	47.7854	351.611	7.8109	1317.64
1	352.146	55.1047	356.432	8.89366	1320.82
0.79433	357.35	63.7595	362.994	10.1164	1323.89
0.63096	361.915	74.482	369.5	11.6291	1327.29
0.50119	366.589	86.6309	376.686	13.296	1330.95
0.39811	371.992	102.056	385.738	15.3416	1335.02
0.31623	380.016	122.33	399.22	17.8437	1339.68
0.25119	386.425	143.072	412.061	20.3169	1345
0.19953	394.475	169.634	429.402	23.2689	1351.14
0.15849	403.419	204.376	452.234	26.8672	1358.31
0.12589	418.396	244.538	484.617	30.3048	1366.75
0.1	423.446	290.623	513.584	34.4629	1376.84
0.079433	443.823	357.025	569.601	38.8143	1388.91
0.063096	446.911	438.708	626.254	44.4693	1403.55
0.050119	461.323	525.891	699.557	48.742	1421.54
0.039811	492.218	650.567	815.791	52.8889	1443.64
0.031623	521.025	825.264	975.975	57.734	1470.9
0.025119	534.292	1037.37	1166.87	62.7494	1504.67
0.019953	549.404	1273.39	1386.85	66.6622	1546.64
0.015849	567.037	1569.36	1668.66	70.1343	1598.9
0.012589	578.626	1942	2026.37	73.4084	1664.14
0.01	761.217	2368.96	2488.25	72.1862	1745.65