File: Edgar/20240424/20240424/CV/sample-20240417_B/CV_2
Time (s)	Scan	WE(1).Potential (V)	WE(1).Current (A)	External(1).External 2 (V)	Q+	Q-
429.616	1	0.0943298	9.47845e-07	3.42194
439.625	1	-0.0905762	-7.21436e-05	3.36304
449.635	1	-0.289948	-0.00013736	3.08929
459.645	1	-0.48877	-0.000281433	2.56378
469.655	1	-0.313141	0.000117889	2.34314
479.664	1	-0.114685	0.00023407	2.85583
489.674	1	0.0845642	8.35266e-05	3.38287
499.684	2	0.284027	4.31244e-06	3.44086
509.694	2	0.483398	1.78894e-06	3.44116
519.703	2	0.682709	1.13007e-06	3.44055
529.713	2	0.881348	9.79614e-07	3.42072
539.723	2	0.906372	5.24597e-07	3.44055
549.733	2	0.707062	3.61023e-07	3.43933
559.742	2	0.507721	2.15454e-07	3.44055
569.752	2	0.30838	9.06372e-08	3.42163
579.762	2	0.108917	-1.36963e-05	3.44116
589.771	2	-0.0904236	-7.49817e-05	3.30414
599.781	2	-0.289886	-0.000138336	3.05176
609.791	2	-0.488739	-0.000281769	2.54364
619.801	2	-0.313171	0.00011853	2.30316
629.81	2	-0.114716	0.000235626	2.81616
639.82	2	0.0846252	8.45642e-05	3.36243
649.83	3	0.283997	4.36432e-06	3.4201
659.84	3	0.483398	1.70868e-06	3.4198
669.849	3	0.68277	1.06232e-06	3.42102
679.859	3	0.881653	8.48694e-07	3.42041
689.869	3	0.906372	5.21545e-07	3.42072
699.879	3	0.707153	3.14331e-07	3.40118
709.888	3	0.507721	1.6571e-07	3.42072
719.898	3	0.308319	6.2561e-08	3.4021
729.908	3	0.10907	-1.39801e-05	3.4024
739.918	3	-0.0906067	-7.55005e-05	3.3252
749.927	3	-0.289856	-0.000138794	3.03253
759.937	3	-0.488708	-0.000282104	2.54486
769.947	3	-0.313049	0.000118896	2.3056
779.957	3	-0.114777	0.000236298	2.81586
789.966	3	0.0846558	8.52051e-05	3.34412
799.976	4	0.283936	4.31976e-06	3.39539
809.986	4	0.483368	1.76483e-06	3.42285
819.995	4	0.68277	1.04584e-06	3.42102
830.005	4	0.882263	7.9071e-07	3.42102
840.015	4	0.906067	5.13916e-07	3.40179
850.025	4	0.707153	2.66724e-07	3.40179
860.034	4	0.507721	2.05383e-07	3.40302
870.044	4	0.308289	6.7749e-08	3.40179
880.054	4	0.108917	-1.42639e-05	3.38287
890.064	4	-0.0905151	-7.58362e-05	3.30383
900.073	4	-0.289917	-0.000138977	3.05206
910.083	4	-0.488861	-0.000282043	2.56348
920.093	4	-0.51239	-0.000101532	1.95435
930.103	4	-0.312561	0.000200562	1.95282
940.112	4	-0.113678	0.000301544	2.54395
950.122	4	0.0847778	0.00011792	3.26508
960.132	5	0.284058	4.9408e-06	3.36334
970.142	5	0.483459	1.91101e-06	3.38196
980.151	5	0.6828	1.2085e-06	3.36273
990.161	5	0.881653	8.37402e-07	3.36304
1000.17	5	0.906067	5.44739e-07	3.38165
1010.18	5	0.707092	3.30505e-07	3.38196
1020.19	5	0.50769	2.02332e-07	3.38196
1030.2	5	0.30835	2.47192e-08	3.38257
1040.21	5	0.108917	-1.45905e-05	3.38226
1050.22	5	-0.0905151	-7.61108e-05	3.28461
1060.23	5	-0.289917	-0.000139618	3.03253
1070.24	5	-0.488708	-0.000282471	2.51953
1080.25	5	-0.51239	-0.0001015625	1.93359
1090.26	5	-0.312531	0.000200073	1.93359
1100.27	5	-0.113617	0.000302216	2.49908
1110.28	5	0.0847473	0.000119751	3.2843
1120.29	6	0.284027	4.97131e-06	3.38226
1130.3	6	0.483459	1.96533e-06	3.38196
1140.31	6	0.682861	1.19293e-06	3.36365
1150.32	6	0.881653	8.49304e-07	3.38104
1160.33	6	0.906372	5.70068e-07	3.36243
1170.34	6	0.707092	2.90222e-07	3.36212
1180.35	6	0.507751	2.12708e-07	3.38135
1190.36	6	0.30838	7.92236e-08	3.36243
1200.37	6	0.108978	-1.48743e-05	3.38257
1210.38	6	-0.0904846	-7.64771e-05	3.26477
1220.39	6	-0.289886	-0.000139984	3.03162
1230.39	6	-0.488708	-0.000282684	2.50031
1240.4	6	-0.512329	-0.000101624	1.91437
1250.41	6	-0.312653	0.00019989	1.93359
1260.42	6	-0.113617	0.000302673	2.49969
1270.43	6	0.0847168	0.000120636	3.26538
1280.44	7	0.284027	5.08423e-06	3.36273
1290.45	7	0.483459	1.95679e-06	3.3429
1300.46	7	0.682892	1.19019e-06	3.34259
1310.47	7	0.881653	8.35571e-07	3.34259
1320.48	7	0.906372	5.24902e-07	3.36243
1330.49	7	0.707184	3.36609e-07	3.3429
1340.5	7	0.50769	2.05078e-07	3.3429
1350.51	7	0.308289	9.52148e-08	3.36243
1360.52	7	0.10907	-1.50665e-05	3.32397
1370.53	7	-0.0904236	-7.67517e-05	3.26508
1380.54	7	-0.289856	-0.000140442	2.99255
1390.55	7	-0.48877	-0.000283051	2.49939
1400.56	7	-0.687866	-0.000421692	1.89423
1410.57	7	-0.512146	3.85529e-05	1.52252
1420.58	7	-0.312317	0.000269196	1.71844
1430.59	7	-0.113159	0.000357056	2.30499
1440.6	7	0.0847778	0.000170471	3.20648
1450.61	8	0.284088	5.97229e-06	3.3432
1460.62	8	0.483459	2.33978e-06	3.3432
1470.63	8	0.682892	1.42731e-06	3.32336
1480.64	8	0.881958	1.01624e-06	3.34229
1490.65	8	0.906372	6.14014e-07	3.34198
1500.66	8	0.707214	3.91235e-07	3.32275
1510.67	8	0.5078125	2.69165e-07	3.3432
1520.68	8	0.308411	8.23975e-08	3.32367
1530.69	8	0.10907	-1.54236e-05	3.32397
1540.7	8	-0.0904541	-7.73315e-05	3.22601
1550.71	8	-0.289856	-0.000141266	2.95319
1560.72	8	-0.488647	-0.000284332	2.49969
1570.73	8	-0.687866	-0.000422516	1.83624
1580.74	8	-0.512115	3.88031e-05	1.50299
1590.75	8	-0.312286	0.000269409	1.67938
1600.76	8	-0.113281	0.000358124	2.32452
1610.76	8	0.0848083	0.000171967	3.2074
1620.77	9	0.284088	5.98145e-06	3.32428
1630.78	9	0.483521	2.34436e-06	3.30322
1640.79	9	0.682922	1.45233e-06	3.32458
1650.8	9	0.881653	1.00983e-06	3.34351
1660.81	9	0.906067	6.33545e-07	3.32367
1670.82	9	0.707214	3.77197e-07	3.34351
1680.83	9	0.507843	2.52075e-07	3.30414
1690.84	9	0.308472	1.18408e-07	3.32458
1700.85	9	0.10907	-1.56769e-05	3.32458
1710.86	9	-0.090332	-7.77588e-05	3.20801
1720.87	9	-0.289795	-0.000142029	2.9538
1730.88	9	-0.488708	-0.000285309	2.50031
1740.89	9	-0.687805	-0.000423035	1.87439
1750.9	9	-0.512177	3.90442e-05	1.5033
1760.91	9	-0.312256	0.000269684	1.67877
1770.92	9	-0.113098	0.000358704	2.22656
1780.93	9	0.0848083	0.000172546	3.16772
1790.94	10	0.283997	5.96924e-06	3.32336
1800.95	10	0.483551	2.32117e-06	3.30292
1810.96	10	0.682861	1.45538e-06	3.32367
1820.97	10	0.881958	1.03271e-06	3.30292
1830.98	10	0.906372	5.96008e-07	3.30292
1840.99	10	0.707153	4.16565e-07	3.32336
1851	10	0.5078125	2.62756e-07	3.30383
1861.01	10	0.308441	5.7373e-08	3.32397
1871.02	10	0.109039	-1.5921e-05	3.30353
1881.03	10	-0.0904541	-7.80334e-05	3.22662
1891.04	10	-0.289825	-0.000142517	2.97363
1901.05	10	-0.488678	-0.000286102	2.46094
1911.06	10	-0.687927	-0.000423615	1.85486
1921.07	10	-0.712128	-0.00023053	1.34552
1931.08	10	-0.512115	0.000135895	1.26251
1941.09	10	-0.312134	0.000331787	1.46393
1951.1	10	-0.112793	0.000411804	2.05048
1961.11	10	0.0847778	0.000235779	3.10883
1971.12	11	0.284058	7.69043e-06	3.28369
1981.13	11	0.483551	3.03314e-06	3.284
1991.14	11	0.682892	1.80969e-06	3.30322
2001.14	11	0.881958	1.31744e-06	3.2843
2011.15	11	0.906067	7.80334e-07	3.30292
2021.16	11	0.707245	5.17883e-07	3.28369
2031.17	11	0.507782	3.32642e-07	3.30322
2041.18	11	0.30838	1.00403e-07	3.284
2051.19	11	0.109039	-1.62048e-05	3.2843
2061.2	11	-0.0903931	-7.86133e-05	3.20679
2071.21	11	-0.289856	-0.000143524	2.93335
2081.22	11	-0.488647	-0.000287659	2.46063
2091.23	11	-0.687836	-0.00042572	1.8161
2101.24	11	-0.712128	-0.000230591	1.3266
2111.25	11	-0.512146	0.000136108	1.24359
2121.26	11	-0.312042	0.00033197	1.46393
2131.27	11	-0.112885	0.000412781	2.07092
2141.28	11	0.0848694	0.00023703	3.07037
2151.29	12	0.284088	7.60498e-06	3.30322
2161.3	12	0.483551	3.04474e-06	3.2843
2171.31	12	0.682892	1.78436e-06	3.284
2181.32	12	0.881348	1.35284e-06	3.30292
2191.33	12	0.906372	8.31604e-07	3.28339
2201.34	12	0.707214	4.74854e-07	3.28369
2211.35	12	0.507904	3.28369e-07	3.26416
2221.36	12	0.308929	1.7395e-07	3.284
2231.37	12	0.108398	-1.65649e-05	3.28461
2241.38	12	-0.0897522	-7.9071e-05	3.18787
2251.39	12	-0.290405	-0.000144409	2.9541
2261.4	12	-0.489197	-0.000288818	2.42218
2271.41	12	-0.688354	-0.000427032	1.83594
2281.42	12	-0.712738	-0.000230652	1.3269
2291.43	12	-0.512482	0.000136566	1.24359
2301.44	12	-0.312897	0.000332367	1.46393
2311.45	12	-0.113007	0.000413177	1.97235
2321.46	12	0.0846558	0.000236542	3.05084
2331.47	13	0.284515	7.60193e-06	3.26538
2341.48	13	0.482941	2.99225e-06	3.284
2351.49	13	0.682343	1.80206e-06	3.24493
2361.5	13	0.881042	1.30188e-06	3.26447
2371.51	13	0.907593	8.03223e-07	3.24493
2381.51	13	0.706543	4.75464e-07	3.28369
2391.52	13	0.507935	3.01819e-07	3.26447
2401.53	13	0.308716	1.27869e-07	3.284
2411.54	13	0.108551	-1.67419e-05	3.26508
2421.55	13	-0.0906677	-7.94678e-05	3.16742
2431.56	13	-0.28949	-0.000144989	2.87537
2441.57	13	-0.488495	-0.000289276	2.46063
2451.58	13	-0.687836	-0.000427368	1.81671
2461.59	13	-0.888062	-0.000583801	1.30676
2471.6	13	-0.71167	-9.80835e-05	1.04767
2481.61	13	-0.511719	0.000209167	1.08673
2491.62	13	-0.311462	0.000389191	1.28754
2501.63	13	-0.112701	0.000469574	1.87469
2511.64	13	0.0854797	0.000326294	2.99225
2521.65	14	0.284668	1.11023e-05	3.24554
2531.66	14	0.483887	4.37927e-06	3.24524
2541.67	14	0.6828	2.57294e-06	3.24463
2551.68	14	0.881348	1.87103e-06	3.24463
2561.69	14	0.906067	1.18347e-06	3.24493
2571.7	14	0.706604	7.26929e-07	3.24493
2581.71	14	0.508087	5.24597e-07	3.26508
2591.72	14	0.30838	2.70386e-07	3.24554
2601.73	14	0.109131	-1.70776e-05	3.22601
2611.74	14	-0.0911255	-7.99255e-05	3.14819
2621.75	14	-0.2901	-0.000145935	2.8949
2631.76	14	-0.487885	-0.000290741	2.42249
2641.77	14	-0.688385	-0.00042926	1.796875
2651.78	14	-0.888672	-0.000584717	1.28754
2661.79	14	-0.711914	-9.78088e-05	1.04767
2671.8	14	-0.511688	0.000208618	1.0672
2681.81	14	-0.312622	0.000388641	1.28845
2691.82	14	-0.11319	0.00046991	1.83563
2701.83	14	0.0856934	0.000328644	2.95288
2711.84	15	0.283997	1.12e-05	3.22571
2721.85	15	0.484161	4.33228e-06	3.20648
2731.86	15	0.682648	2.57751e-06	3.24463
2741.87	15	0.881958	1.87653e-06	3.22571
2751.88	15	0.906067	1.24146e-06	3.2251
2761.89	15	0.707123	7.68127e-07	3.24524
2771.89	15	0.508453	4.776e-07	3.22632
2781.9	15	0.308868	2.69775e-07	3.22632
2791.91	15	0.109039	-1.73553e-05	3.22693
2801.92	15	-0.0896606	-8.05054e-05	3.09082
2811.93	15	-0.289398	-0.00014679	2.8363
2821.94	15	-0.488159	-0.00029187	2.34497
2831.95	15	-0.687866	-0.000430664	1.71906
2841.96	15	-0.888367	-0.0005859375	1.22467
2851.97	15	-0.712616	-9.73511e-05	1.04828
2861.98	15	-0.512268	0.000209229	1.08765
2871.99	15	-0.312592	0.000388916	1.32782
2882	15	-0.11203	0.000470398	1.91498
2892.01	15	0.085022	0.000328033	2.99255
2902.02	16	0.284668	1.10809e-05	3.20679
2912.03	16	0.48291	4.26483e-06	3.20618
2922.04	16	0.682465	2.60498e-06	3.20679
2932.05	16	0.881653	1.85028e-06	3.20618
2938.03	16	0.987549	1.54358e-06	3.20618