File: Edgar/20240424/20240424/CV/sample-20240417_B/OCP_0
Time (s)	WE(1).Potential (V)	External(1).External 2 (V)
3.23876	-0.519409	3.84247
4.23876	-0.506592	3.86139
5.23876	-0.327454	3.84247
6.23876	-0.526733	3.862
7.23876	-0.439758	3.84369
8.23876	-0.458679	3.84247
9.23876	-0.463562	3.84308
10.2388	-0.464478	3.82324
11.2388	-0.515442	3.84277
12.2388	-0.52124	3.84186
13.2388	-0.489502	3.84277
14.2388	-0.515442	3.84155
15.2388	-0.500793	3.84308
16.2388	-0.498352	3.8623
17.2388	-0.509949	3.84247
18.2388	-0.5078125	3.84277
19.2388	-0.463257	3.84247
20.2388	-0.501099	3.84155
21.2388	-0.481873	3.82202
22.2388	-0.512695	3.8327
23.2388	-0.520325	3.86261
24.2388	-0.529175	3.84277
25.2388	-0.531616	3.8623
26.2388	-0.534363	3.84338
27.2388	-0.541382	3.86292
28.2388	-0.542297	3.84277
29.2388	-0.538025	3.82355
30.2388	-0.53772	3.84277
31.2388	-0.536804	3.82355
32.2388	-0.531616	3.86108
33.2388	-0.531921	3.84308
34.2388	-0.542908	3.84308
35.2388	-0.537415	3.86261
36.2388	-0.534973	3.82172
37.2388	-0.531921	3.8623
38.2388	-0.522461	3.862
39.2388	-0.543213	3.84308
40.2388	-0.536804	3.86169
41.2388	-0.524292	3.84308
42.2388	-0.523071	3.84308
43.2388	-0.541687	3.84308
44.2388	-0.525208	3.84216
45.2388	-0.516663	3.84277
46.2388	-0.541992	3.84338
47.2388	-0.540466	3.84277
48.2388	-0.497131	3.84277
49.2388	-0.487976	3.82263
50.2388	-0.466003	3.82355
51.2388	-0.433655	3.82324
52.2388	-0.460205	3.84247
53.2388	-0.399475	3.84277
54.2388	-0.473938	3.82355
55.2388	-0.457153	3.82324
56.2388	-0.365601	3.82385
57.2388	-0.526123	3.84308
58.2388	-0.470581	3.84338
59.2388	-0.482788	3.84247
60.2388	-0.444336	3.84277
61.2388	-0.461426	3.80371
62.2388	-0.461731	3.82294
63.2388	-0.466614	3.84216
64.2388	-0.469666	3.86261
65.2388	-0.473938	3.84277
66.2388	-0.4953	3.84247
67.2388	-0.509644	3.84277
68.2388	-0.531311	3.84247
69.2388	-0.504761	3.84338
70.2388	-0.477905	3.84308
71.2388	-0.493469	3.84308
72.2388	-0.238342	3.84277
73.2388	-0.357056	3.84247
74.2388	2.54333	3.84216
75.2388	2.10999	3.77899
76.2388	2.20001	3.8031
77.2388	1.56067	3.77869
78.2388	1.04095	3.77777
79.2388	4.05945	3.75916
80.2388	3.01331	3.62244
81.2388	2.59674	3.71857
82.2388	2.34711	3.68195
83.2388	2.19147	3.68134
84.2388	1.77643	2.64557
85.2388	1.88477	3.56354
86.2388	2.44873	3.13293
87.2388	2.4234	2.66479
88.2388	1.35254	2.54761
89.2388	0.734863	3.349
90.2388	0.0568237	3.40759
91.2388	0.497437	3.40759
92.2388	0.491943	3.40576
93.2388	0.155823	3.44604
94.2388	0.463562	3.50494
95.2388	8.30231	3.52203
96.2388	0.384521	3.52478
97.2388	1.21918	3.54401
98.2388	8.90778	3.50372
99.2388	4.24011	3.54401
100.239	0.163239	3.54401
101.239	0.186798	3.52509
102.239	0.166718	3.52539
103.239	1.11816	3.56354
104.239	2.8717	3.56354
105.239	6.92902	3.54431
106.239	4.26117	3.62213
107.239	1.11725	3.60321
108.239	0.777893	3.60199
109.239	-1.16608	3.62305
110.239	2.71423	3.62274
111.239	10	3.56171
112.239	8.94287	3.56201
113.239	7.79022	3.56232
114.239	6.85303	3.58154
115.239	-7.04193	3.58459
116.239	8.79272	3.44482
117.239	7.24945	3.56293
118.239	5.96039	3.56293
119.239	5.16815	3.58307
120.239	10	3.56171
121.239	10	3.58124
122.239	9.60663	3.58154
123.239	8.5849	3.56201
124.239	7.64679	3.56262
125.239	6.44836	3.58124
126.239	6.21429	3.56323
127.239	4.92004	3.56262
128.239	5.33264	3.5437
129.239	4.97375	3.48511
130.239	4.74121	3.54248
131.239	4.20746	3.4848
132.239	4.06708	3.58307
133.239	3.73962	3.5434
134.239	2.10571	3.54462
135.239	3.34991	3.5434
136.239	-3.1131	3.56476
137.239	-2.48871	3.48694
138.239	-4.26514	3.34991
139.239	0.55481	3.46558
140.239	-3.69415	3.38837
141.239	10	3.40454
142.239	8.78632	3.40576
143.239	7.36084	3.40607
144.239	5.83557	3.44391
145.239	4.37225	3.40576
146.239	1.68884	3.40729
147.239	1.89423	3.40698
148.239	0.958557	3.38806
149.239	1.07025	3.40668
150.239	1.12366	3.44604
151.239	1.53412	3.44635
152.239	2.52228	3.46527
153.239	2.08252	3.46558
154.239	1.83624	3.48572
155.239	1.64856	3.46558
156.239	1.10687	3.46588
157.239	-0.735474	3.44635
158.239	-1.37543	3.46619
159.239	-2.27386	3.46619
160.239	-0.526428	3.44604
161.239	-1.4032	3.4668
162.239	-2.06787	3.44635
163.239	-0.470581	3.42651
164.239	-0.540466	3.4668
165.239	-0.663452	3.44574
166.239	0.754089	3.50555
167.239	-2.94708	3.48541
168.239	-4.5224	3.46619
169.239	-1.31683	3.46527
170.239	-0.256348	3.36792
171.239	8.69354	3.40454
172.239	4.40674	3.4256
173.239	0.126221	3.42743
174.239	0.089447	3.44513
175.239	0.089447	3.46588
176.239	0.0894775	3.44635
177.239	0.0895081	3.42682
178.239	0.0895691	3.42743
179.239	0.0895996	3.42682
180.239	0.0896301	3.42682
181.239	0.0896606	3.42682
182.239	0.0896606	3.42712
183.239	0.0897217	3.42682
184.239	0.0897217	3.40729
185.239	0.0897827	3.42682
186.239	0.0898132	3.42682
187.239	0.08984375	3.40729
188.239	0.08984375	3.40729
189.239	0.0898743	3.40729
190.239	0.0899048	3.38776
191.239	0.0899353	3.40759
192.239	0.0899658	3.42682
193.239	0.0899963	3.4259
194.239	0.0899963	3.4259
195.239	0.0900269	3.42682
196.239	0.0900574	3.42682
197.239	0.0900879	3.40637
198.239	0.0901184	3.40637
199.239	0.0901489	3.42743
200.239	0.0901794	3.42651
201.239	0.0901794	3.42651
202.239	0.09021	3.42621
203.239	0.0902405	3.42682
204.239	0.090271	3.42712
205.239	0.0903015	3.42682
206.239	0.090332	3.42621
207.239	0.0903625	3.42682
208.239	0.0903625	3.42743
209.239	0.0903931	3.42712
210.239	0.0904236	3.44666
211.239	0.0904541	3.40759
212.239	0.0904846	3.42682
213.239	0.0904846	3.42682
214.239	0.0905151	3.44635
215.239	0.0905457	3.44666
216.239	0.0905762	3.40668
217.239	0.0906067	3.42682
218.239	0.0906067	3.42682
219.239	0.0906372	3.42682
220.239	0.0906677	3.42682
221.239	0.0907288	3.44666
222.239	0.0907288	3.42712
223.239	0.0907593	3.42712
224.239	0.0907898	3.42682
225.239	0.0908203	3.4079
226.239	0.0908508	3.42621
227.239	0.0908813	3.44696
228.239	0.0909119	3.40668
229.239	0.0909424	3.40729
230.239	0.0909729	3.42682
231.239	0.0910034	3.42682
232.239	0.0910034	3.42682
233.239	0.0910339	3.42682
234.239	0.0910645	3.44513
235.239	0.091095	3.42712
236.239	0.091095	3.44635
237.239	0.091095	3.40759
238.239	0.0911255	3.44604
239.239	0.091156	3.42682
240.239	0.0911865	3.40668
241.239	0.0911865	3.40729
242.239	0.091217	3.42712
243.239	0.0912476	3.44604
244.239	0.0912781	3.42712
245.239	0.0913086	3.42682
246.239	0.0913086	3.4259
247.239	0.0913391	3.42651
248.239	0.0913696	3.44635
249.239	0.0914001	3.42651
250.239	0.0914001	3.4259
251.239	0.0914307	3.42682
252.239	0.0914612	3.44666
253.239	0.0914612	3.42682
254.239	0.0914917	3.42682
255.239	0.0915222	3.42651
256.239	0.0915222	3.42682
257.239	0.0915527	3.42712
258.239	0.0915833	3.42712
259.239	0.0916138	3.42651
260.239	0.0916443	3.42682
261.239	0.0916443	3.42682
262.239	0.0916748	3.40729
263.239	0.0917053	3.42651
264.239	0.0917358	3.44482
265.239	0.0917358	3.42651
266.239	0.0917664	3.42682
267.239	0.0917969	3.40759
268.239	0.0918274	3.44635
269.239	0.0918274	3.44666
270.239	0.0918579	3.44635
271.239	0.0918884	3.42682
272.239	0.0919189	3.42712
273.239	0.0919495	3.40729
274.239	0.0919495	3.42743
275.239	0.09198	3.42712
276.239	0.0920105	3.42651
277.239	0.092041	3.42682
278.239	0.092041	3.42682
279.239	0.0920715	3.42743
280.239	0.0920715	3.4259
281.239	0.0921021	3.40759
282.239	0.0921021	3.4079
283.239	0.0921326	3.42621
284.239	0.0921631	3.42682
285.239	0.0921936	3.4259
286.239	0.0921936	3.42682
287.239	0.0922241	3.42651
288.239	0.0922241	3.44543
289.239	0.0922546	3.42682
290.239	0.0922852	3.42712
291.239	0.0922852	3.42682
292.239	0.0923157	3.42682
293.239	0.0923462	3.42682
294.239	0.0923767	3.42712
295.239	0.0923767	3.44666
296.239	0.0924072	3.42682
297.239	0.0924377	3.44604
298.239	0.0924377	3.44635
299.239	0.0924683	3.42651
300.239	0.0924988	3.40698
301.239	0.0924988	3.42682
302.239	0.0925293	3.42682