File: Edgar/20240424/20240424/CV/sample-20240417_B/OCP_1
Time (s)	WE(1).Potential (V)	External(1).External 2 (V)
303.687	0.0925598	3.40729
304.687	0.0925903	3.42651
305.687	0.0925903	3.42682
306.687	0.0926208	3.44604
307.687	0.0926514	3.42682
308.687	0.0926514	3.42712
309.687	0.0926819	3.42651
310.687	0.0927124	3.42651
311.687	0.0927124	3.42682
312.687	0.0927429	3.42651
313.687	0.0927429	3.44635
314.687	0.0927734	3.42682
315.687	0.092804	3.42682
316.687	0.0928345	3.42743
317.687	0.0928345	3.42682
318.687	0.092865	3.44635
319.687	0.0928955	3.42682
320.687	0.0928955	3.42712
321.687	0.092926	3.42712
322.687	0.0929565	3.42651
323.687	0.0929565	3.42621
324.687	0.0929871	3.42621
325.687	0.0929871	3.42651
326.687	0.0930176	3.42712
327.687	0.0930481	3.42743
328.687	0.0930481	3.40698
329.687	0.0930786	0.0500793
330.687	0.0931091	0.0499573
331.687	0.0931091	0.0500793
332.687	0.0931396	3.4259
333.687	0.0931396	3.44543
334.687	0.0931702	3.4259
335.687	0.0932007	3.44543
336.687	0.0932007	3.44635
337.687	0.0932312	3.44452
338.687	0.0932312	3.44543
339.687	0.0932617	3.44574
340.687	0.0932922	0.0501099
341.687	0.0932922	0.0501404
342.687	0.0933228	0.0499878
343.687	0.0933533	0.0499268
344.687	0.0933533	0.0499878
345.687	0.0933533	0.0501404
346.687	0.0933838	0.0501404
347.687	0.0933838	0.0499878
348.687	0.0934143	0.0498962
349.687	0.0934448	0.0500488
350.687	0.0934448	0.0499878
351.687	0.0934753	0.0501404
352.687	0.0934753	0.0500488
353.687	0.0935059	0.0500488
354.687	0.0935059	0.0501709
355.687	0.0935364	0.0500793
356.687	0.0935364	3.36761
357.687	0.0935669	3.46466
358.687	0.0935669	3.43719
359.687	0.0935974	3.42529
360.687	0.0935974	3.44604
361.687	0.0936279	3.42651
362.687	0.0936584	3.44543
363.687	0.093689	3.44604
364.687	0.093689	3.44666
365.687	0.0937195	3.42621
366.687	0.0937195	3.42682
367.687	0.09375	3.44574
368.687	0.09375	3.42651
369.687	0.0937805	3.44604
370.687	0.093811	3.42621
371.687	0.093811	3.44635
372.687	0.0938416	3.40637
373.687	0.0938416	3.44574
374.687	0.0938721	3.46588
375.687	0.0939026	3.44727
376.687	0.0939026	3.44604
377.687	0.0939331	3.44574
378.687	0.0939331	3.44604
379.687	0.0939636	3.42682
380.687	0.0939636	3.44666
381.687	0.0939636	3.42712
382.687	0.0939941	3.44635
383.687	0.0939941	3.44635
384.687	0.0940247	3.42682
385.687	0.0940247	3.44666
386.687	0.0940552	3.44574
387.687	0.0940552	3.44635
388.687	0.0940552	3.44604
389.687	0.0940857	3.42712
390.687	0.0941162	3.42682
391.687	0.0941162	3.44635
392.687	0.0941467	3.42682
393.687	0.0941467	3.44604
394.687	0.0941467	3.42651
395.687	0.0941772	3.44604
396.687	0.0941772	3.42712
397.687	0.0942078	3.44635
398.687	0.0942078	3.46558
399.687	0.0942383	3.46588
400.687	0.0942383	3.44666
401.687	0.0942688	3.42651
402.687	0.0942993	3.4259
403.687	0.0942993	3.42621
404.687	0.0943298	3.46588
405.687	0.0943604	3.42621
406.687	0.0943604	3.46558
407.687	0.0943909	3.44513
408.687	0.0943909	3.44604
409.687	0.0944214	3.44604
410.687	0.0944214	3.44635
411.687	0.0944519	3.42682
412.687	0.0944824	3.44635
413.687	0.0944824	3.44604
414.687	0.0945129	3.44635
415.687	0.0945129	3.42682
416.687	0.0945129	3.44635
417.687	0.0945129	3.4259
418.687	0.0945435	3.44574
419.687	0.0945435	3.44543
420.687	0.094574	3.42651
421.687	0.094574	3.44574
422.687	0.094574	3.44482