File: Edgar/20240424/20240424/CV/sample-20240417_B/OCP_3
Time (s)	WE(1).Potential (V)	External(1).External 2 (V)
2939.04	0.866699	3.19122
2940.04	0.768738	3.23151
2941.04	0.684814	3.21228
2942.04	0.611572	3.21198
2943.04	0.54657	3.21106
2944.04	0.488678	3.21228
2945.04	0.4375	3.21198
2946.04	0.392334	3.23151
2947.04	0.352936	3.19336
2948.04	0.319244	3.21167
2949.04	0.291748	3.23151
2950.04	0.270782	3.21167
2951.04	0.255463	3.21198
2952.04	0.244202	3.21228
2953.04	0.235626	3.21198
2954.04	0.228912	3.21228
2955.04	0.223511	3.21259
2956.04	0.218994	3.21167
2957.04	0.215179	3.21106
2958.04	0.211914	3.21045
2959.04	0.209076	3.21136
2960.04	0.206512	3.19214
2961.04	0.204285	3.23059
2962.04	0.20224	3.22937
2963.04	0.200409	3.19275
2964.04	0.1987	3.21014
2965.04	0.197174	3.21106
2966.04	0.19574	3.21106
2967.04	0.194427	3.21136
2968.04	0.193207	3.21167
2969.04	0.192078	3.19153
2970.04	0.19101	3.21167
2971.04	0.189972	3.19153
2972.04	0.189087	3.19275
2973.04	0.188171	3.21228
2974.04	0.187347	3.21289
2975.04	0.186554	3.21198
2976.04	0.185791	3.19305
2977.04	0.185089	3.19275
2978.04	0.184418	3.19305
2979.04	0.183777	3.19305
2980.04	0.183136	3.21136
2981.04	0.182556	3.19275
2982.04	0.181976	3.21198
2983.04	0.181458	3.21106
2984.04	0.180939	3.19122
2985.04	0.18045	3.21198
2986.04	0.179962	3.21198
2987.04	0.179504	3.21075
2988.04	0.179077	3.21167
2989.04	0.17865	3.21198
2990.04	0.178223	3.21198
2991.04	0.177826	3.21167
2992.04	0.17746	3.21106
2993.04	0.177094	3.21198
2994.04	0.176727	3.23151
2995.04	0.176392	3.23151
2996.04	0.176025	3.21228
2997.04	0.17572	3.21198
2998.04	0.175385	3.19275
2999.04	0.175079	3.19275
3000.04	0.174774	3.19275
3001.04	0.1745	3.21136
3002.04	0.174225	3.21198
3003.04	0.17395	3.19275
3004.04	0.173676	3.19336
3005.04	0.173431	3.21228
3006.04	0.173157	3.2309
3007.04	0.172913	3.19183
3008.04	0.172668	3.21136
3009.04	0.172424	3.19244
3010.04	0.17218	3.21014
3011.04	0.171967	3.19336
3012.04	0.171783	3.19244
3013.04	0.17157	3.19244
3014.04	0.171356	3.21198
3015.04	0.171173	3.21228
3016.04	0.170959	3.19336
3017.04	0.170776	3.19305
3018.04	0.170593	3.21198
3019.04	0.17041	3.2312
3020.04	0.170227	3.19336
3021.04	0.170044	3.19336
3022.04	0.169861	3.19275
3023.04	0.169678	3.19275
3024.04	0.169525	3.21075
3025.04	0.169373	3.1723
3026.04	0.169189	3.19275
3027.04	0.169067	3.21198
3028.04	0.168915	3.19244
3029.04	0.168793	3.21198
3030.04	0.16864	3.23059
3031.04	0.168488	3.19275
3032.04	0.168365	3.19244
3033.04	0.168213	3.19305
3034.04	0.168091	3.19275
3035.04	0.167969	3.19275
3036.04	0.167816	3.21167
3037.04	0.167694	3.21106
3038.04	0.167572	3.21167
3039.04	0.16745	3.23151
3040.04	0.167297	3.21106
3041.04	0.167206	3.19275
3042.04	0.167084	3.21198
3043.04	0.166962	3.21045
3044.04	0.16684	3.21228
3045.04	0.166748	3.23151
3046.04	0.166626	3.21198
3047.04	0.166504	3.19305
3048.04	0.166412	3.21136
3049.04	0.16629	3.21167
3050.04	0.166199	3.21198
3051.04	0.166077	3.21228
3052.04	0.165985	3.21228
3053.04	0.165894	3.19244
3054.04	0.165802	3.21167
3055.04	0.16568	3.19214
3056.04	0.165588	3.21167
3057.04	0.165497	3.21228
3058.04	0.165405	3.21198
3059.04	0.165283	3.21167
3060.04	0.165253	3.21198
3061.04	0.165131	3.21198
3062.04	0.16507	3.19214
3063.04	0.164978	3.21198
3064.04	0.164886	3.19275
3065.04	0.164795	3.21228
3066.04	0.164734	3.21228
3067.04	0.164642	3.21106
3068.04	0.164551	3.21167
3069.04	0.16449	3.19122
3070.04	0.164398	3.21198
3071.04	0.164337	3.21136
3072.04	0.164246	3.19275
3073.04	0.164154	3.19244
3074.04	0.164093	3.21198
3075.04	0.164032	3.21198
3076.04	0.16394	3.19275
3077.04	0.163879	3.21198
3078.04	0.163818	3.21198
3079.04	0.163727	3.17352
3080.04	0.163666	3.19275
3081.04	0.163574	3.21167
3082.04	0.163513	3.19275
3083.04	0.163452	3.21198
3084.04	0.163391	3.21198
3085.04	0.16333	3.21198
3086.04	0.163269	3.19275
3087.04	0.163208	3.21198
3088.04	0.163147	3.19305
3089.04	0.163086	3.19275
3090.04	0.163025	3.23151
3091.04	0.162964	3.19275
3092.04	0.162903	3.19275
3093.04	0.162811	3.19153
3094.04	0.162781	3.19244
3095.04	0.16272	3.19305
3096.04	0.162659	3.19122
3097.04	0.162598	3.19275
3098.04	0.162537	3.21198
3099.04	0.162476	3.21136
3100.04	0.162415	3.19275
3101.04	0.162354	3.19275
3102.04	0.162292	3.19244
3103.04	0.162231	3.21106
3104.04	0.162201	3.19305
3105.04	0.16214	3.19275
3106.04	0.162079	3.19275
3107.04	0.162018	3.21198
3108.04	0.161987	3.19275
3109.04	0.161926	3.19305
3110.04	0.161865	3.21198
3111.04	0.161835	3.19275
3112.04	0.161774	3.19275
3113.04	0.161713	3.21198
3114.04	0.161652	3.19244
3115.04	0.161621	3.21228
3116.04	0.16156	3.21075
3117.04	0.16153	3.19183
3118.04	0.161469	3.19275