File: Edgar/20230810 (1)/WO3_ITO_20230717_H/CA_2
Time (s)	WE(1).Potential (V)	WE(1).Current (A)
41.0452	-0.699799	-0.00271912
42.0452	-0.698761	-0.00274078
43.0452	-0.699005	-0.00287537
44.0452	-0.698669	-0.00282959
45.0452	-0.698853	-0.00276245
46.0452	-0.699036	-0.00269989
47.0452	-0.698975	-0.00263885
48.0452	-0.6987	-0.00257996
49.0452	-0.698822	-0.00252228
50.0452	-0.699005	-0.00246735
51.0452	-0.698883	-0.00241394
52.0452	-0.698853	-0.00236237
53.0452	-0.699097	-0.00231323
54.0452	-0.698944	-0.00226593
55.0452	-0.698975	-0.00222076
56.0452	-0.699188	-0.00217773
57.0452	-0.698822	-0.00213654
58.0452	-0.699036	-0.00209747
59.0452	-0.698792	-0.00205963
60.0452	-0.698944	-0.00201416
61.0452	-0.699005	-0.00198486
62.0452	-0.699158	-0.00195557
63.0452	-0.699005	-0.00192627
64.0452	-0.698914	-0.00189758
65.0452	-0.699219	-0.0018689
66.0452	-0.698853	-0.00184174
67.0452	-0.698975	-0.00181549
68.0452	-0.698822	-0.00178925
69.0452	-0.69928	-0.00176361
70.0452	-0.699036	-0.00174225
71.0452	-0.698883	-0.00172058
72.0452	-0.699005	-0.00169922
73.0452	-0.699249	-0.00167786
74.0452	-0.698975	-0.00165863
75.0452	-0.698822	-0.00163971
76.0452	-0.699097	-0.00162079
77.0452	-0.69928	-0.00160431
78.0452	-0.699066	-0.00158722
79.0452	-0.698944	-0.00157166
80.0452	-0.699005	-0.00155548
81.0452	-0.699097	-0.00154083
82.0452	-0.699036	-0.00152618
83.0452	-0.69928	-0.00151184
84.0452	-0.698883	-0.00149841
85.0452	-0.699402	-0.00148407
86.0452	-0.698944	-0.00147217
87.0452	-0.699371	-0.00145966
88.0452	-0.699005	-0.00144775
89.0452	-0.699066	-0.0014325
90.0452	-0.699341	-0.00142395
91.0452	-0.699127	-0.00141266
92.0452	-0.699005	-0.00140167
93.0452	-0.69931	-0.00139069
94.0452	-0.69928	-0.00137939
95.0452	-0.699188	-0.00136932
96.0452	-0.699036	-0.00135895
97.0452	-0.699036	-0.00134613
98.0452	-0.699341	-0.0013385
99.0452	-0.699341	-0.00132935
100.045	-0.699371	-0.00131989
101.045	-0.699127	-0.00131104
102.045	-0.699066	-0.00130188
103.045	-0.699249	-0.00128693
104.045	-0.699371	-0.00128265
105.045	-0.699097	-0.00127441
106.045	-0.69931	-0.00126343
107.045	-0.699066	-0.00125732
108.045	-0.69931	-0.00124969
109.045	-0.699432	-0.00124146
110.045	-0.69931	-0.00123352
111.045	-0.699341	-0.00122559
112.045	-0.699371	-0.00121765
113.045	-0.699463	-0.00120972
114.045	-0.699097	-0.00120209
115.045	-0.699066	-0.00119446
116.045	-0.699219	-0.00118713
117.045	-0.699097	-0.00118011
118.045	-0.699066	-0.00117157
119.045	-0.699127	-0.00116455
120.045	-0.699127	-0.00115814
121.045	-0.699097	-0.00115143
122.045	-0.699005	-0.00114471
123.045	-0.699158	-0.001138
124.045	-0.699341	-0.00113098
125.045	-0.699249	-0.00112427
126.045	-0.699097	-0.00111755
127.045	-0.698975	-0.00110992
128.045	-0.699432	-0.00110474
129.045	-0.699432	-0.00109833
130.045	-0.699097	-0.00109192
131.045	-0.699371	-0.00108582
132.045	-0.69928	-0.00107971
133.045	-0.699249	-0.00107361
134.045	-0.699066	-0.0010675
135.045	-0.699066	-0.00106171
136.045	-0.699036	-0.00105591
137.045	-0.699188	-0.00105011
138.045	-0.699127	-0.00104462
139.045	-0.699432	-0.00103851
140.045	-0.699036	-0.00103333
141.045	-0.699249	-0.00102661
142.045	-0.699432	-0.00102234
143.045	-0.699097	-0.00101715
144.045	-0.699432	-0.00101196
145.045	-0.699036	-0.00100677
146.045	-0.699158	-0.00100128
147.045	-0.699036	-0.000996399
148.045	-0.699158	-0.000991516
149.045	-0.699127	-0.000986633
150.045	-0.699127	-0.000977783
151.045	-0.699066	-0.000975342
152.045	-0.699188	-0.000971375
153.045	-0.699066	-0.000967102
154.045	-0.69931	-0.000961609
155.045	-0.699341	-0.000957336
156.045	-0.699432	-0.000952759
157.045	-0.699158	-0.000948181
158.045	-0.699402	-0.000942993
159.045	-0.69931	-0.000939026
160.045	-0.699219	-0.000934753
161.045	-0.69931	-0.000930176
162.045	-0.699249	-0.000925598
163.045	-0.699432	-0.0009198
164.045	-0.699432	-0.000917358
165.045	-0.699249	-0.000911255
166.045	-0.699097	-0.000908813
167.045	-0.69928	-0.000904541
168.045	-0.699371	-0.000900879
169.045	-0.699341	-0.000897217
170.045	-0.699188	-0.000893555
171.045	-0.699127	-0.000887451
172.045	-0.699432	-0.000885925
173.045	-0.699188	-0.000881348
174.045	-0.699463	-0.000877991
175.045	-0.699371	-0.000871887
176.045	-0.699463	-0.000869141
177.045	-0.699341	-0.000863037
178.045	-0.699097	-0.000862427
179.045	-0.699188	-0.000858765
180.045	-0.699097	-0.000855103
181.045	-0.699432	-0.000851746
182.045	-0.69928	-0.000848083
183.045	-0.699127	-0.000844727
184.045	-0.699493	-0.000840759
185.045	-0.699249	-0.000837402
186.045	-0.699158	-0.000834351
187.045	-0.699341	-0.000830688
188.045	-0.69931	-0.000826416
189.045	-0.699127	-0.000823364
190.045	-0.69928	-0.000820923
191.045	-0.699402	-0.000817871
192.045	-0.699219	-0.000814514
193.045	-0.699341	-0.000810852
194.045	-0.699188	-0.000805054
195.045	-0.699432	-0.000802917
196.045	-0.699127	-0.000799866
197.045	-0.699341	-0.000797119
198.045	-0.699127	-0.000794373
199.045	-0.699432	-0.000791931
200.045	-0.69928	-0.000789185
201.045	-0.699524	-0.000786438
202.045	-0.699127	-0.00078125
203.045	-0.69928	-0.00078064
204.045	-0.699402	-0.000777893
205.045	-0.699127	-0.000775146
206.045	-0.699127	-0.000772705
207.045	-0.699402	-0.000769348
208.045	-0.699432	-0.000766907
209.045	-0.699097	-0.000764465
210.045	-0.69928	-0.000761719
211.045	-0.699341	-0.000758972
212.045	-0.699432	-0.000755005
213.045	-0.699127	-0.000753479
214.045	-0.699371	-0.000751343
215.045	-0.699127	-0.000748596
216.045	-0.699188	-0.000746155
217.045	-0.699463	-0.000743713
218.045	-0.69931	-0.000740967
219.045	-0.699188	-0.000738525
220.045	-0.699341	-0.000735474
221.045	-0.69931	-0.000733643
222.045	-0.699402	-0.000731201
223.045	-0.699127	-0.00072876
224.045	-0.699158	-0.000726318
225.045	-0.699371	-0.000724182
226.045	-0.699402	-0.000721436
227.045	-0.699188	-0.000719299
228.045	-0.699341	-0.000716858
229.045	-0.699463	-0.000714722
230.045	-0.699493	-0.00071228
231.045	-0.699493	-0.000710144
232.045	-0.69931	-0.000707703
233.045	-0.69928	-0.000705566
234.045	-0.69931	-0.00070343
235.045	-0.699158	-0.000701294
236.045	-0.699158	-0.000698853
237.045	-0.699402	-0.000696716
238.045	-0.69931	-0.00069458
239.045	-0.699493	-0.000690308
240.045	-0.699371	-0.000689392
241.045	-0.699371	-0.000687866
242.045	-0.699219	-0.00068634
243.045	-0.699402	-0.000684814
244.045	-0.699158	-0.000682983
245.045	-0.69928	-0.000681152
246.045	-0.699188	-0.000679016
247.045	-0.699463	-0.000677185
248.045	-0.699219	-0.000675354
249.045	-0.699371	-0.000673523
250.045	-0.699371	-0.000671387
251.045	-0.699432	-0.00066864
252.045	-0.699219	-0.000667725
253.045	-0.69931	-0.000665894
254.045	-0.699432	-0.000663757
255.045	-0.699158	-0.000662537
256.045	-0.699219	-0.000660706
257.045	-0.699493	-0.000658569
258.045	-0.699341	-0.000657043
259.045	-0.699432	-0.000654907
260.045	-0.699402	-0.000653381
261.045	-0.699493	-0.000651855
262.045	-0.699402	-0.000648804
263.045	-0.699127	-0.000647888
264.045	-0.699493	-0.000646667
265.045	-0.699158	-0.000645447
266.045	-0.699402	-0.000643616
267.045	-0.699524	-0.00064209
268.045	-0.699432	-0.000640259
269.045	-0.699188	-0.000638733
270.045	-0.69931	-0.000637207
271.045	-0.699219	-0.000635681
272.045	-0.699402	-0.000634155
273.045	-0.699188	-0.000632629
274.045	-0.699188	-0.000629578
275.045	-0.699188	-0.000629578
276.045	-0.699341	-0.000628052
277.045	-0.699249	-0.000626526
278.045	-0.699249	-0.000624084
279.045	-0.699432	-0.000623779
280.045	-0.699463	-0.000622559
281.045	-0.699188	-0.000621338
282.045	-0.699432	-0.000619812
283.045	-0.699371	-0.000618896
284.045	-0.699493	-0.000617371
285.045	-0.699341	-0.00061615
286.045	-0.699371	-0.000614929
287.045	-0.699219	-0.000613403
288.045	-0.699432	-0.000612183
289.045	-0.699371	-0.000610657
290.045	-0.699402	-0.000609131
291.045	-0.699219	-0.000606079
292.045	-0.699493	-0.000604858
293.045	-0.699158	-0.000604858
294.045	-0.699432	-0.000603943
295.045	-0.699402	-0.000602722
296.045	-0.69928	-0.000601501
297.045	-0.699402	-0.000599976
298.045	-0.699493	-0.000598755
299.045	-0.699402	-0.000597534
300.045	-0.699493	-0.000596313
301.045	-0.699402	-0.000595093
302.045	-0.699341	-0.000593872
303.045	-0.699493	-0.000592651
304.045	-0.699402	-0.000591125
305.045	-0.699493	-0.000590515
306.045	-0.699219	-0.000589294
307.045	-0.699524	-0.000588074
308.045	-0.699249	-0.000586853
309.045	-0.699371	-0.000578308
310.045	-0.69931	-0.000579224
311.045	-0.699463	-0.000578918
312.045	-0.699493	-0.000579224
313.045	-0.699493	-0.000578613
314.045	-0.699554	-0.000578308
315.045	-0.699219	-0.000577393
316.045	-0.69928	-0.000576782
317.045	-0.699463	-0.000575867
318.045	-0.69928	-0.000574951
319.045	-0.699341	-0.000574341
320.045	-0.699463	-0.00057373
321.045	-0.699402	-0.000572815
322.045	-0.699188	-0.000571899
323.045	-0.699158	-0.000570984
324.045	-0.699432	-0.000569763
325.045	-0.699188	-0.000568848
326.045	-0.699402	-0.000567627
327.045	-0.699249	-0.000567017
328.045	-0.699249	-0.000565796
329.045	-0.699463	-0.000563354
330.045	-0.699493	-0.000563049
331.045	-0.699493	-0.000562439
332.045	-0.699432	-0.000561523
333.045	-0.699249	-0.000560913
334.045	-0.699463	-0.000559998
335.045	-0.69931	-0.000559082
336.045	-0.699188	-0.000558167
337.045	-0.699493	-0.000557556
338.045	-0.699432	-0.000556641
339.045	-0.699524	-0.00055542
340.045	-0.699432	-0.00055481
340.945	-0.699341	-0.000553894