File: Edgar/20230810 (1)/WO3_ITO_20230717_H/OCP_1
Time (s)	WE(1).Potential (V)
9.56388	0.597229
10.5639	0.597229
11.5639	0.597229
12.5639	0.597229
13.5639	0.597534
14.5639	0.597534
15.5639	0.597534
16.5639	0.597534
17.5639	0.597229
18.5639	0.597229
19.5639	0.597229
20.5639	0.597229
21.5639	0.597229
22.5639	0.596924
23.5639	0.596619
24.5639	0.595398
25.5639	0.595398
26.5639	0.595093
27.5639	0.595093
28.5639	0.595093
29.5639	0.595093
30.5639	0.594788
31.5639	0.594788
32.5639	0.594482
33.5639	0.594482
34.5639	0.594482
35.5639	0.594482
36.5639	0.594177
37.5639	0.594177
38.5639	0.594177