File: Edgar/20230810 (1)/WO3_ITO_20230717_H/OCP_3
Time (s)	WE(1).Potential (V)
341.956	-0.526428
343.956	-0.448792
345.956	-0.413727
347.956	-0.393616
349.956	-0.375641
351.956	-0.360077
353.956	-0.346497
355.956	-0.334503
357.956	-0.323792
359.956	-0.314117
361.956	-0.305389
363.956	-0.297516
365.956	-0.291016
367.956	-0.284729
369.956	-0.278473
371.956	-0.272705
373.956	-0.267517
375.956	-0.262726
377.956	-0.258301
379.956	-0.254242
381.956	-0.250366
383.956	-0.246674
385.956	-0.243073
387.956	-0.239655
389.956	-0.236328
391.956	-0.232971
393.956	-0.229584
395.956	-0.226105
397.956	-0.222412
399.956	-0.218597
401.956	-0.21463
403.956	-0.210693
405.956	-0.206635
407.956	-0.203308
409.956	-0.198639
411.956	-0.194122
413.956	-0.189575
415.956	-0.185211
417.956	-0.181
419.956	-0.176819
421.956	-0.172882
423.956	-0.168884
425.956	-0.164978
427.956	-0.161163
429.956	-0.15744
431.956	-0.153839
433.956	-0.150116
435.956	-0.146606
437.956	-0.143188
439.956	-0.139771
441.956	-0.136444
443.956	-0.133179
445.956	-0.129913
447.956	-0.126709
449.956	-0.123535
451.956	-0.120422
453.956	-0.117371
455.956	-0.114258
457.956	-0.111237
459.956	-0.108307
461.956	-0.105347
463.956	-0.102509
465.956	-0.0996704
467.956	-0.0968933
469.956	-0.0941162
471.956	-0.0914001
473.956	-0.0887451
475.956	-0.0861206
477.956	-0.0835571
479.956	-0.0809937
481.956	-0.0787964
483.956	-0.0761414
485.956	-0.0736694
487.956	-0.0713806
489.956	-0.0690308
491.956	-0.0667419
493.956	-0.0645142
495.956	-0.0623169
497.956	-0.0602112
499.956	-0.0581055
501.956	-0.0559998
503.956	-0.0539551
505.956	-0.0519409
507.956	-0.0499878
509.956	-0.0481049
511.956	-0.0463196
513.956	-0.0442688
515.956	-0.0423798
517.956	-0.0406067
519.956	-0.0388306
521.956	-0.0371002
523.956	-0.0356293
525.956	-0.0336639
527.956	-0.0319855
529.956	-0.030307
531.956	-0.0286835
533.956	-0.0271332
535.956	-0.0255249
537.956	-0.0240875
539.956	-0.0223602
541.956	-0.0208801
543.956	-0.0194122
545.956	-0.0179169
547.956	-0.0163574
549.956	-0.0148865
551.956	-0.0134613
553.956	-0.0121063
555.956	-0.010788
557.956	-0.00949402
559.956	-0.0081665
561.956	-0.0068634
563.956	-0.00561829
565.956	-0.00436401
567.956	-0.00315247
569.956	-0.00197144
571.956	-0.000817871
573.956	0.000216675
575.956	0.00139771
577.956	0.00247803
579.956	0.00348511
581.956	0.00446472
583.956	0.00553589
585.956	0.00647278
587.956	0.00740051
589.956	0.00823669
591.956	0.00917664
593.956	0.0100464
595.956	0.0108856
597.956	0.0116791
599.956	0.0124603
601.956	0.0132538
603.956	0.0139465
605.956	0.0147491
607.956	0.0155151
609.956	0.0162262
611.956	0.0169403
613.956	0.0176331
615.956	0.0183105
617.956	0.0189819
619.956	0.0196411
621.956	0.0203186
623.956	0.0209778
625.956	0.0216217
627.956	0.0222473
629.956	0.0227997
631.956	0.0235474
633.956	0.0243134
635.956	0.0250763
637.956	0.0257782
639.956	0.0264526
641.956	0.0271545
643.956	0.0278809
645.956	0.028595
647.956	0.0293091
649.956	0.0299866
651.956	0.030603
653.956	0.031601
655.956	0.0325989
657.956	0.0334991
659.956	0.0343292
661.956	0.0350861
663.956	0.0358978
665.956	0.0367218
667.956	0.0375244
669.956	0.0383636
671.956	0.0391876
673.956	0.0400085
675.956	0.0408508
677.956	0.0416992
679.956	0.0425415
681.956	0.0433929
683.956	0.0442657
685.956	0.0451385
687.956	0.0460724
689.956	0.046994
691.956	0.0479126
693.956	0.0488464
695.956	0.0497742
697.956	0.0507507
699.956	0.0515747
701.956	0.0522766
703.956	0.0530701
705.956	0.0540161
707.956	0.0549316
709.956	0.0558777
711.956	0.0568542
713.956	0.0578308
715.956	0.0587769
717.956	0.0597229
719.956	0.0606995
721.956	0.0616455
723.956	0.0625916
725.956	0.0636597
727.956	0.0647583
729.956	0.0657349
731.956	0.0667725
733.956	0.0678406
735.956	0.0690918
737.956	0.0700684
739.956	0.0710449
741.956	0.0719604
743.956	0.0729065
745.956	0.0738831
747.956	0.0749512
749.956	0.0759888
751.956	0.0770569
753.956	0.0780334
755.956	0.078949
757.956	0.0798035
759.956	0.080719
760.956	0.0811462