File: Edgar/20240529/20240529/electrodeposition_pulsed_potential_20240529_B/OCP_1
Time (s)	WE(1).Potential (V)
2.04122	0.523682
3.04122	0.523987
4.04122	0.524292
5.04122	0.524597
6.04122	0.524902
7.04122	0.525208
8.04122	0.525513
9.04122	0.525818
10.0412	0.526123
11.0412	0.526428
12.0412	0.526733
13.0412	0.527344
14.0412	0.527344
15.0412	0.527649
16.0412	0.527954
17.0412	0.528259
18.0412	0.528564
19.0412	0.52887
20.0412	0.529175
21.0412	0.52948
22.0412	0.529785
23.0412	0.53009
24.0412	0.530396
25.0412	0.530701
26.0412	0.531006
27.0412	0.531311
28.0412	0.531616
29.0412	0.531921
30.0412	0.532227
31.0412	0.532532
32.0412	0.532837
33.0412	0.533142
34.0412	0.533447
35.0412	0.533752
36.0412	0.534058
37.0412	0.534363
38.0412	0.534668
39.0412	0.534973
40.0412	0.535278
41.0412	0.535583
42.0412	0.535889
43.0412	0.536194
44.0412	0.536194
45.0412	0.536499
46.0412	0.536804
47.0412	0.537109
48.0412	0.537415
49.0412	0.53772
50.0412	0.538025
51.0412	0.53833
52.0412	0.53833
53.0412	0.538635
54.0412	0.53894
55.0412	0.539246
56.0412	0.539551
57.0412	0.539551
58.0412	0.539856
59.0412	0.540161
60.0412	0.540466
61.0412	0.540771
62.0412	0.540771
63.0412	0.541077
64.0412	0.541382
65.0412	0.541687
66.0412	0.541992
67.0412	0.541992
68.0412	0.542297
69.0412	0.542603
70.0412	0.542908
71.0412	0.542908
72.0412	0.543213
73.0412	0.543518
74.0412	0.543518
75.0412	0.543823
76.0412	0.544128
77.0412	0.544128
78.0412	0.544434
79.0412	0.544434
80.0412	0.544739
81.0412	0.545044
82.0412	0.545044
83.0412	0.545349
84.0412	0.545654
85.0412	0.545654
86.0412	0.545959
87.0412	0.546265
88.0412	0.546265
89.0412	0.54657
90.0412	0.54657
91.0412	0.546875
92.0412	0.54718
93.0412	0.54718
94.0412	0.547485
95.0412	0.547485
96.0412	0.547791
97.0412	0.548096
98.0412	0.548096
99.0412	0.548401
100.041	0.548401
101.041	0.548706
102.041	0.548706
103.041	0.549011
104.041	0.549011
105.041	0.549316
106.041	0.549622
107.041	0.549622
108.041	0.549927
109.041	0.549927
110.041	0.550232
111.041	0.550232
112.041	0.550537
113.041	0.550537
114.041	0.550842
115.041	0.550842
116.041	0.551147
117.041	0.551453
118.041	0.551453
119.041	0.551758
120.041	0.551758
121.041	0.552063
122.041	0.552063
123.041	0.552368
124.041	0.552368
125.041	0.552673
126.041	0.552673
127.041	0.552979
128.041	0.552979
129.041	0.553284
130.041	0.553284
131.041	0.553589
132.041	0.553894
133.041	0.553894
134.041	0.554199
135.041	0.554504
136.041	0.554504
137.041	0.554504
138.041	0.55481
139.041	0.55481
140.041	0.555115
141.041	0.555115
142.041	0.55542
143.041	0.55542
144.041	0.555725
145.041	0.555725
146.041	0.55603
147.041	0.55603
148.041	0.556335
149.041	0.556335
150.041	0.556641
151.041	0.556641
152.041	0.556946
153.041	0.556946
154.041	0.557251
155.041	0.557251
156.041	0.557556
157.041	0.557556
158.041	0.557861
159.041	0.557861
160.041	0.558167
161.041	0.558167
162.041	0.558167
163.041	0.558472
164.041	0.558472
165.041	0.558777
166.041	0.558777
167.041	0.559082
168.041	0.559082
169.041	0.559387
170.041	0.559387
171.041	0.559387
172.041	0.559692
173.041	0.559692
174.041	0.559998
175.041	0.559998
176.041	0.560303
177.041	0.560303
178.041	0.560608
179.041	0.560913
180.041	0.560913
181.041	0.561218