File: Edgar/20240529/20240529/electrodeposition_pulsed_potential_20240529_B/OCP_3
Time (s)	WE(1).Potential (V)
5474.32	0.559387
5475.32	0.557556
5476.32	0.55603
5477.32	0.554504
5478.32	0.553284
5479.32	0.552063
5480.32	0.550842
5481.32	0.549622
5482.32	0.548401
5483.32	0.547485
5484.32	0.54657
5485.32	0.545654
5486.32	0.544739
5487.32	0.543823
5488.32	0.543213
5489.32	0.542297
5490.32	0.541687
5491.32	0.541077
5492.32	0.540466
5493.32	0.539856
5494.32	0.539246
5495.32	0.538635
5496.32	0.538025
5497.32	0.53772
5498.32	0.537109
5499.32	0.536804
5500.32	0.536194
5501.32	0.535889
5502.32	0.535583
5503.32	0.535278
5504.32	0.534668
5505.32	0.534363
5506.32	0.534058
5507.32	0.533752
5508.32	0.533447
5509.32	0.533142
5510.32	0.533142
5511.32	0.532837
5512.32	0.532532
5513.32	0.532227
5514.32	0.532227
5515.32	0.531921
5516.32	0.531616
5517.32	0.531616
5518.32	0.531311
5519.32	0.531311
5520.32	0.531006
5521.32	0.531006
5522.32	0.530701
5523.32	0.530701
5524.32	0.530396
5525.32	0.530396
5526.32	0.53009
5527.32	0.53009
5528.32	0.53009
5529.32	0.529785
5530.32	0.529785
5531.32	0.529785
5532.32	0.52948
5533.32	0.52948
5534.32	0.52948
5535.32	0.529175
5536.32	0.529175
5537.32	0.529175
5538.32	0.529175
5539.32	0.529175
5540.32	0.52887
5541.32	0.52887
5542.32	0.52887
5543.32	0.52887
5544.32	0.528564
5545.32	0.528564
5546.32	0.528564
5547.32	0.528564
5548.32	0.528564
5549.32	0.528564
5550.32	0.528564
5551.32	0.528564
5552.32	0.528259
5553.32	0.528259
5554.32	0.528259
5555.32	0.528259
5556.32	0.528259
5557.32	0.528259
5558.32	0.528259
5559.32	0.528259
5560.32	0.528259
5561.32	0.528259
5562.32	0.528259
5563.32	0.528259
5564.32	0.527954
5565.32	0.527954
5566.32	0.527954
5567.32	0.527954
5568.32	0.527954
5569.32	0.527954
5570.32	0.527954
5571.32	0.527954
5572.32	0.527954
5573.32	0.527649
5574.32	0.527649
5575.32	0.527649
5576.32	0.527649
5577.32	0.527649
5578.32	0.527649
5579.32	0.527649
5580.32	0.527649
5581.32	0.527649
5582.32	0.527649
5583.32	0.527649
5584.32	0.527649
5585.32	0.527649
5586.32	0.527649
5587.32	0.527649
5588.32	0.527649
5589.32	0.527649
5590.32	0.527649
5591.32	0.527649
5592.32	0.527649
5593.32	0.527649
5594.32	0.527649
5595.32	0.527649
5596.32	0.527649
5597.32	0.527649
5598.32	0.527649
5599.32	0.527649
5600.32	0.527649
5601.32	0.527649
5602.32	0.527649
5603.32	0.527649
5604.32	0.527649
5605.32	0.527649
5606.32	0.527649
5607.32	0.527649
5608.32	0.527649
5609.32	0.527649
5610.32	0.527649
5611.32	0.527649
5612.32	0.527649
5613.32	0.527649
5614.32	0.527649
5615.32	0.527649
5616.32	0.527649
5617.32	0.527649
5618.32	0.527649
5619.32	0.527649
5620.32	0.527649
5621.32	0.527649
5622.32	0.527649
5623.32	0.527649
5624.32	0.527649
5625.32	0.527649
5626.32	0.527649
5627.32	0.527649
5628.32	0.527649
5629.32	0.527649
5630.32	0.527649
5631.32	0.527649
5632.32	0.527649
5633.32	0.527649
5634.32	0.527649
5635.32	0.527649
5636.32	0.527649
5637.32	0.527649
5638.32	0.527954
5639.32	0.527954
5640.32	0.527954
5641.32	0.527954
5642.32	0.527954
5643.32	0.527954
5644.32	0.527954
5645.32	0.527954
5646.32	0.527954
5647.32	0.527954
5648.32	0.527954
5649.32	0.527954
5650.32	0.527954
5651.32	0.527954
5652.32	0.527954
5653.32	0.527954