File: Edgar/20240529/20240529/electrodeposition_pulsed_potential_20240529_B/pulses_1000_to_2000.txt
Time (s)	WE(1).Potential (V)	WE(1).Current (A)
1504.95	-0.698181	-0.0218292
1509.31	0.560394	6.01196e-06
1513.63	0.561554	-4.97437e-06
1517.97	-0.699005	-0.0167267
1522.33	0.561432	-1.7395e-06
1526.65	0.561462	-4.08936e-06
1530.99	-0.69812	-0.0136658
1535.35	0.56134	2.7771e-06
1539.67	0.561005	-3.14331e-06
1544.01	-0.698578	-0.0116516
1548.37	0.560364	7.8125e-06
1552.69	0.56076	-6.40869e-07
1557.05	-0.00017395	0.00916748
1561.39	0.560516	5.34058e-06
1565.71	0.561615	-5.15747e-06
1570.07	0.000790405	0.00623138
1574.41	0.560791	1.00708e-06
1578.73	0.560333	3.93677e-06
1583.09	0.000100708	0.00411652
1587.43	0.561401	-1.64795e-06
1591.75	0.56012	5.76782e-06
1596.11	0.000466919	0.00261871
1600.45	0.559967	5.27954e-06
1604.77	0.560089	4.94385e-06
1609.15	0.56012	0.013916
1613.47	0.560181	5.7373e-06
1617.79	0.561188	-4.11987e-06
1622.17	0.56073	0.000985718
1626.49	0.560699	3.93677e-06
1630.81	0.560181	3.72314e-06
1635.19	0.560852	9.61304e-05
1639.51	0.561462	-1.25122e-06
1643.83	0.560852	-2.56348e-06
1648.21	0.560577	5.6488e-05
1652.53	0.561554	-4.42505e-06
1656.85	0.56073	1.46484e-06
1661.23	0.559967	4.4342e-05
1665.55	0.560455	3.90625e-06
1669.87	0.559998	5.00488e-06
1674.25	0.559998	3.51562e-05
1678.57	0.561432	-3.08228e-06
1682.89	0.561493	-6.04248e-06
1687.27	0.560333	2.67944e-05
1691.59	0.561584	-4.18091e-06
1695.91	0.560242	5.61523e-06
1700.29	0.561646	1.19629e-05
1704.61	0.561554	-4.3335e-06
1708.93	0.561462	-6.56128e-06
1713.31	0.56015	1.98364e-05
1717.63	0.561401	-4.30298e-06
1721.95	0.560638	-2.2583e-06
1726.33	0.56015	1.66321e-05
1730.65	0.560028	6.22559e-06
1734.97	0.560516	3.05176e-06
1739.35	0.560181	1.5686e-05
1743.67	0.561401	-2.99072e-06
1747.99	0.561401	-5.34058e-06
1752.37	0.561493	4.21143e-06
1756.69	0.561584	-3.17383e-06
1761.01	0.560181	4.42505e-06
1765.39	0.561218	5.21851e-06
1769.71	0.560303	4.91333e-06
1774.05	-0.69873	-0.0226898
1778.41	0.56012	1.07117e-05
1782.73	0.560394	5.58472e-06
1787.07	-0.69754	-0.0178436
1791.43	0.561401	1.0376e-06
1795.75	0.561584	-3.72314e-06
1800.09	-0.697723	-0.0147095
1804.45	0.56015	1.11389e-05
1808.77	0.561768	-5.67627e-06
1813.11	-0.697815	-0.0125519
1817.47	0.560608	5.88989e-06
1821.79	0.56012	5.52368e-06
1826.15	0.000296021	0.0090271
1830.49	0.561371	7.32422e-07
1834.81	0.56012	5.52368e-06
1839.17	0.000698853	0.00633148
1843.51	0.561523	-1.52588e-06
1847.83	0.561005	-1.98364e-06
1852.19	0.000921631	0.00434235
1856.53	0.561188	6.10352e-07
1860.85	0.561157	-1.31226e-06
1865.21	-0.000314331	0.00287781
1869.55	0.561554	-2.68555e-06
1873.87	0.560059	6.10352e-06
1878.25	0.560944	0.0148163
1882.57	0.560394	5.40161e-06
1886.89	0.560181	6.95801e-06
1891.27	0.559753	0.00862122
1895.59	0.560516	4.08936e-06
1899.91	0.561096	-2.01416e-06
1904.29	0.560059	0.000129181
1908.61	0.561615	-2.74658e-06
1912.93	0.560181	3.14331e-06
1917.31	0.560242	6.54602e-05
1921.63	0.559967	8.3313e-06
1925.95	0.560059	5.18799e-06
1930.33	0.561523	3.68958e-05
1934.65	0.561005	2.13623e-07
1938.97	0.561554	-5.40161e-06
1943.35	0.561554	2.73132e-05
1947.67	0.560791	2.80762e-06
1951.99	0.559967	6.50024e-06
1956.37	0.561432	2.0752e-05
1960.69	0.560364	5.06592e-06
1965.01	0.560608	6.40869e-07
1969.39	0.560974	1.72119e-05
1973.71	0.561615	-4.63867e-06
1978.03	0.561096	-3.08228e-06
1982.41	0.560425	1.953125E-05
1986.73	0.56131	-4.5166e-06
1991.05	0.559967	4.91333e-06
1995.43	0.560974	1.05591e-05
1999.75	0.561188	-2.13623e-06
2004.07	0.560852	-1.46484e-06
2008.45	0.561493	8.91113e-06
2012.77	0.56134	-2.89917e-06
2017.09	0.560333	3.05176e-07
2021.47	0.560303	1.35803e-05
2025.79	0.560883	1.83105e-07
2030.11	0.560944	-1.98364e-06
2034.49	0.56012	1.37939e-05
2038.81	0.559937	6.89697e-06
2043.15	-0.698883	-0.0233582
2047.51	0.561066	6.98853e-06
2051.83	0.561279	-3.08228e-06
2056.17	-0.698944	-0.0187012
2060.53	0.559998	1.25122e-05
2064.85	0.561279	-2.50244e-06
2069.19	-0.697723	-0.0155579
2073.55	0.56015	1.1261e-05
2077.87	0.561554	-4.97437e-06
2082.21	-0.697968	-0.0133148
2086.57	0.561371	1.00708e-06
2090.89	0.560486	2.68555e-06
2095.25	5.79834e-05	0.00881958
2099.59	0.561188	3.02124e-06
2103.91	0.560272	5.09644e-06
2108.27	-0.000546265	0.00636505
2112.61	0.560059	9.94873e-06
2116.93	0.561401	-3.66211e-06
2121.29	-0.000170898	0.00449738
2125.63	0.561584	-3.66211e-07
2129.95	0.561127	-4.27246e-07
2134.31	-0.000485229	0.00308258
2138.65	0.560638	2.71606e-06
2142.97	0.560303	4.97437e-06
2147.35	0.559387	0.0154755
2151.67	0.561646	-3.05176e-06
2155.99	0.561127	-1.25122e-06
2160.37	0.560974	0.0105042
2164.69	0.561523	-1.06812e-06
2169.01	0.560944	-4.27246e-07
2173.39	0.560425	0.000265686
2177.71	0.560059	8.66699e-06
2182.03	0.561249	-3.8147e-06
2186.41	0.561127	6.95801e-05
2190.73	0.561096	-1.2207e-06
2195.05	0.560913	6.71387e-07
2199.43	0.561157	4.41589e-05
2203.75	0.56134	-1.0376e-06
2208.07	0.560455	3.44849e-06
2212.45	0.560028	4.02832e-05
2216.77	0.560059	7.72095e-06
2221.09	0.561646	-5.00488e-06
2225.47	0.560211	3.03345e-05
2229.79	0.559998	6.40869e-06
2234.11	0.560089	5.27954e-06
2238.49	0.561188	1.69678e-05
2242.81	0.561584	-4.21143e-06
2247.13	0.560089	6.34766e-06
2251.51	0.561401	1.11694e-05
2255.83	0.560974	-6.71387e-07
2260.15	0.561646	-5.64575e-06
2264.53	0.561401	1.15662e-05
2268.85	0.559998	7.69043e-06
2273.17	0.560852	3.05176e-07
2277.55	0.560608	1.38855e-05
2281.87	0.561554	-4.30298e-06
2286.19	0.561432	-4.3335e-06
2290.57	0.560211	1.63574e-05
2294.89	0.561279	-1.80054e-06
2299.21	0.560028	5.34058e-06
2303.59	0.560211	1.25732e-05
2307.91	0.561737	-4.15039e-06
2312.25	-0.697357	-0.0237885
2316.61	0.560272	1.18408e-05
2320.93	0.561554	-4.63867e-06
2325.27	-0.697571	-0.0193481
2329.63	0.560638	8.57544e-06
2333.95	0.561035	-1.83105e-06
2338.29	-0.69873	-0.0162384
2342.65	0.561279	3.35693e-06
2346.97	0.56134	-1.67847e-06
2351.31	-0.699249	-0.0139709
2355.67	0.56076	4.85229e-06
2359.99	0.56015	4.54712e-06
2364.35	-0.000830078	0.00854797
2368.69	0.560455	7.99561e-06
2373.01	0.560364	2.96021e-06
2377.37	0.000836182	0.00623596
2381.71	0.560181	8.60596e-06
2386.03	0.559967	7.99561e-06
2390.39	0.000234985	0.00447968
2394.73	0.561676	-1.40381e-06
2399.05	0.56012	5.06592e-06
2403.41	0.000897217	0.00312256
2407.75	0.560364	7.32422e-06
2412.07	0.560272	2.83813e-06
2416.45	0.560242	0.0158783
2420.77	0.561218	-3.96729e-07
2425.09	0.560181	3.66211e-06
2429.47	0.560455	0.0114532
2433.79	0.561493	-2.13623e-06
2438.11	0.561584	-4.57764e-06
2442.49	0.560059	0.000685425
2446.81	0.561371	-6.10352e-07
2451.13	0.560638	1.40381e-06
2455.51	0.561615	8.85315e-05
2459.83	0.559967	9.00269e-06
2464.15	0.561523	-4.76074e-06
2468.53	0.560303	5.44434e-05
2472.85	0.560059	8.23975e-06
2477.17	0.561005	-4.48608e-06
2481.55	0.560944	3.29895e-05
2485.87	0.56012	7.99561e-06
2490.19	0.560516	1.06812e-06
2494.57	0.561615	2.15454e-05
2498.89	0.560028	7.01904e-06
2503.21	0.561157	-3.96729e-06
2507.59	0.561584	1.51367e-05
2511.91	0.561676	-4.24194e-06
2516.23	0.561005	-1.89209e-06
2520.61	0.560181	2.33459e-05
2524.93	0.560608	2.44141e-06
2529.25	0.561218	-8.23975e-07
2533.63	0.560425	1.828e-05
2537.95	0.561279	-1.95313e-06
2542.27	0.560516	2.01416e-06
2546.65	0.561432	7.69043e-06
2550.97	0.56076	2.53296e-06
2555.29	0.56131	-4.30298e-06
2559.67	0.560669	1.28479e-05
2563.99	0.56134	-4.36401e-06
2568.31	0.560638	3.69263e-06
2572.69	0.560089	1.44043e-05
2577.01	0.561493	-2.83813e-06
2581.35	-0.698181	-0.0241821
2585.71	0.561523	3.69263e-06
2590.03	0.560822	-3.35693e-07
2594.37	-0.697601	-0.0199005
2598.73	0.561554	3.20435e-06
2603.05	0.561615	-5.7373e-06
2607.39	-0.698944	-0.016806
2611.75	0.559906	1.08032e-05
2616.07	0.560028	5.24902e-06
2620.41	-0.697968	-0.0145264
2624.77	0.560974	5.24902e-06
2629.09	0.56134	-4.3335e-06
2633.45	-0.000576782	0.00830688
2637.79	0.560059	1.15356e-05
2642.11	0.560455	1.77002e-06
2646.47	0.000369263	0.00612427
2650.81	0.560059	9.39941e-06
2655.13	0.561401	-3.38745e-06
2659.49	0.000537109	0.00445404
2663.83	0.560608	7.78198e-06
2668.15	0.561584	-5.18799e-06
2672.51	-0.000500488	0.00316193
2676.85	0.56015	9.49097e-06
2681.17	0.559937	4.60815e-06
2685.55	0.56012	0.0161957
2689.87	0.561737	-1.64795e-06
2694.19	0.56134	-3.63159e-06
2698.57	0.56073	0.0120605
2702.89	0.560333	8.08716e-06
2707.21	0.561646	-5.61523e-06
2711.59	0.561646	0.00162445
2715.91	0.559967	9.73511e-06
2720.23	0.560272	3.54004e-06
2724.61	0.560883	0.000148346
2728.93	0.56015	8.97217e-06
2733.25	0.560638	-9.46045e-07
2737.63	0.561584	5.04456e-05
2741.95	0.561584	-4.36401e-06
2746.27	0.559998	5.43213e-06
2750.65	0.560089	3.92761e-05
2754.97	0.56134	-2.50244e-06
2759.29	0.560028	5.79834e-06
2763.67	0.560211	3.27454e-05
2767.99	0.560974	1.40381e-06
2772.31	0.560425	3.84521e-06
2776.69	0.56015	2.70691e-05
2781.01	0.561249	-7.93457e-07
2785.33	0.559998	5.58472e-06
2789.71	0.561462	1.28784e-05
2794.03	0.560364	3.93677e-06
2798.35	0.560638	-2.2583e-06
2802.73	0.561127	1.25427e-05
2804.91	0.560089	4.97437e-06