File: Edgar/20240529/20240529/electrodeposition_pulsed_potential_20240529_B/pulses_0_to_1000.txt
Time (s)	WE(1).Potential (V)	WE(1).Current (A)
181.699	-0.699615	-0.00446838
186.059	0.56073	-4.57764e-07
190.379	0.561249	-4.69971e-06
194.719	-0.698517	-0.0039444
199.079	0.561249	-3.78418e-06
203.399	0.56012	3.11279e-06
207.739	-0.698975	-0.00437286
212.099	0.560547	8.54492e-07
216.419	0.560669	-2.44141e-07
220.759	-0.699432	-0.00491028
225.119	0.561523	-6.04248e-06
229.439	0.560669	-3.35693e-07
233.799	0.000341797	0.000297058
238.139	0.560425	1.89209e-06
242.459	0.560272	2.89917e-06
246.819	0.000891113	-4.55933e-05
251.159	0.561584	-6.22559e-06
255.479	0.560822	1.58691e-06
259.839	-0.000204468	-9.66797e-05
264.179	0.560516	-3.05176e-08
268.499	0.560699	6.10352e-07
272.859	0.000305176	-0.000127136
277.199	0.561157	-5.76782e-06
281.519	0.560272	1.61743e-06
285.899	0.560577	2.948e-05
290.219	0.56131	-6.13403e-06
294.539	0.561066	-3.78418e-06
298.919	0.560089	1.72729e-05
303.239	0.561554	-5.7373e-06
307.559	0.560852	-2.34985e-06
311.939	0.561554	1.89209e-06
316.259	0.56076	-2.80762e-06
320.579	0.560638	-1.19019e-06
324.959	0.561218	2.13623e-06
329.279	0.560486	1.31226e-06
333.599	0.561096	-3.60107e-06
337.979	0.560028	9.33838e-06
342.299	0.561249	-4.54712e-06
346.619	0.561523	-7.04956e-06
350.999	0.560944	5.79834e-07
355.319	0.560699	-1.34277e-06
359.639	0.560638	9.15527e-07
364.019	0.561462	-1.80054e-06
368.339	0.560181	3.69263e-06
372.659	0.561157	-3.8147e-06
377.039	0.561249	-2.19727e-06
381.359	0.56134	-6.04248e-06
385.679	0.56073	8.8501e-07
390.059	0.56012	7.50732e-06
394.379	0.561371	-7.08008e-06
398.699	0.561615	-7.84302e-06
403.079	0.56015	7.78198e-06
407.399	0.560669	-8.23975e-07
411.719	0.560333	2.31934e-06
416.099	0.560974	-2.13623e-07
420.419	0.561279	-4.24194e-06
424.739	0.561462	-6.53076e-06
429.119	0.560181	4.66919e-06
433.439	0.560425	9.76562e-07
437.759	0.56015	2.16675e-06
442.139	0.561005	-1.95313e-06
446.459	0.561584	-6.13403e-06
450.799	-0.69809	-0.0124786
455.159	0.559998	6.28662e-06
459.479	0.561523	-5.37109e-06
463.819	-0.698212	-0.00904541
468.179	0.56012	6.16455e-06
472.499	0.561493	-5.61523e-06
476.839	-0.698212	-0.00782166
481.199	0.560272	3.23486e-06
485.519	0.560883	-6.40869e-07
489.859	-0.69809	-0.00724915
494.219	0.560699	-3.96729e-07
498.539	0.560547	2.13623e-07
502.899	6.10352e-06	0.00681671
507.239	0.560089	4.91333e-06
511.559	0.560669	1.92261e-06
515.919	-7.32422e-05	0.00243103
520.259	0.561005	-2.44141e-07
524.579	0.56012	4.39453e-06
528.939	0.000973511	0.000723267
533.279	0.561188	-2.53296e-06
537.599	0.560577	-1.2207e-07
541.959	0.00057373	0.000147949
546.299	0.560242	4.05884e-06
550.619	0.560272	2.80762e-06
554.999	0.560944	0.000110779
559.319	0.561279	-3.05176e-06
563.639	0.56012	2.56348e-06
568.019	0.561401	3.21045e-05
572.339	0.560638	3.96729e-07
576.659	0.560089	4.24194e-06
581.039	0.56076	2.14844e-05
585.359	0.561554	-5.64575e-06
589.679	0.561584	-6.22559e-06
594.059	0.561523	9.30786e-06
598.379	0.561646	-4.94385e-06
602.699	0.561646	-7.14111e-06
607.079	0.560303	1.55334e-05
611.399	0.560272	3.54004e-06
615.719	0.561188	-3.9978e-06
620.099	0.561554	3.08228e-06
624.419	0.56131	-4.91333e-06
628.739	0.56076	-1.15967e-06
633.119	0.561188	3.93677e-06
637.439	0.561615	-4.18091e-06
641.759	0.560059	5.46265e-06
646.139	0.561157	3.90625e-06
650.459	0.560211	4.39453e-06
654.779	0.561279	-4.54712e-06
659.159	0.561401	6.10352e-07
663.479	0.56131	-4.36401e-06
667.799	0.560638	-1.83105e-06
672.179	0.561218	-9.46045e-07
676.499	0.561523	-5.40161e-06
680.819	0.56134	-6.04248e-06
685.199	0.56015	8.69751e-06
689.519	0.56134	-5.24902e-06
693.839	0.561676	-7.1106e-06
698.219	0.561188	-5.49316e-07
702.539	0.560516	2.2583e-06
706.859	0.560028	4.18091e-06
711.239	0.560028	7.93457e-06
715.559	0.560028	3.60107e-06
719.899	-0.698456	-0.0160706
724.259	0.560394	4.69971e-06
728.579	0.561707	-8.08716e-06
732.919	-0.698029	-0.0115204
737.279	0.560364	5.40161e-06
741.599	0.561005	-3.479e-06
745.939	-0.69809	-0.00949097
750.299	0.560059	7.23267e-06
754.619	0.561554	-6.92749e-06
758.959	-0.69812	-0.00847473
763.319	0.560516	3.08228e-06
767.639	0.56012	4.08936e-06
771.999	0.00072937	0.0084259
776.339	0.560516	5.43213e-06
780.659	0.561584	-4.08936e-06
785.019	-0.000170898	0.0044104
789.359	0.560425	4.08936e-06
793.679	0.560577	3.66211e-07
798.039	0.000247192	0.00206329
802.38	0.561462	-4.73022e-06
806.7	0.56131	-1.2207e-06
811.06	0.000344849	0.000901489
815.4	0.560883	-3.05176e-07
819.72	0.561188	-2.50244e-06
824.1	0.561859	0.000404175
828.42	0.560608	2.80762e-06
832.74	0.560516	2.44141e-06
837.12	0.561157	6.89392e-05
841.44	0.561646	-5.92041e-06
845.76	0.560333	2.0752e-06
850.14	0.561523	3.43018e-05
854.46	0.559998	5.06592e-06
858.78	0.559998	2.62451e-06
863.16	0.560089	3.19824e-05
867.48	0.56012	6.31714e-06
871.8	0.560089	4.57764e-06
876.18	0.560089	2.38037e-05
880.5	0.561646	-4.97437e-06
884.82	0.56015	6.073e-06
889.2	0.561523	9.79614e-06
893.52	0.560883	2.74658e-07
897.84	0.560303	2.04468e-06
902.22	0.561005	1.19629e-05
906.54	0.559937	6.13403e-06
910.86	0.560089	6.31714e-06
915.24	0.56015	1.35803e-05
919.56	0.561401	-4.79126e-06
923.88	0.561401	-4.39453e-06
928.26	0.560852	7.8125e-06
932.58	0.560028	7.23267e-06
936.9	0.56012	5.61523e-06
941.28	0.560944	5.21851e-06
945.6	0.56131	-2.65503e-06
949.92	0.559906	4.66919e-06
954.3	0.560272	1.16272e-05
958.62	0.561493	-4.97437e-06
962.94	0.56012	2.41089e-06
967.32	0.560913	3.87573e-06
971.64	0.561523	-5.24902e-06
975.96	0.561584	-6.22559e-06
980.34	0.561401	7.32422e-07
984.66	0.561035	-2.44141e-06
989	-0.698517	-0.0186249
993.36	0.561127	1.67847e-06
997.68	0.561615	-7.38525e-06
1002.02	-0.699432	-0.0136597
1006.38	0.560883	2.74658e-06
1010.7	0.560181	3.96729e-06
1015.04	-0.698486	-0.0110565
1019.4	0.560303	3.75366e-06
1023.72	0.561035	-1.86157e-06
1028.06	-0.698273	-0.00960693
1032.42	0.561249	9.15527e-07
1036.74	0.560608	-1.86157e-06
1041.1	-0.000708008	0.00901794
1045.44	0.560852	3.54004e-06
1049.76	0.560181	2.92969e-06
1054.12	0.000543213	0.00546112
1058.46	0.561615	-2.47192e-06
1062.78	0.561615	-6.40869e-06
1067.14	0.000811768	0.00311432
1071.48	0.559937	6.80542e-06
1075.8	0.561493	-5.5542e-06
1080.16	-0.000384521	0.00169159
1084.5	0.560181	5.31006e-06
1088.82	0.561493	-4.05884e-06
1093.2	0.559601	0.010498
1097.52	0.560791	3.57056e-06
1101.84	0.561554	-6.40869e-06
1106.22	0.561462	0.000119507
1110.54	0.560883	-1.43433e-06
1114.86	0.560028	5.76782e-06
1119.24	0.560608	5.96924e-05
1123.56	0.56131	-3.05176e-06
1127.88	0.56015	2.47192e-06
1132.26	0.559937	4.1626e-05
1136.58	0.561523	-4.36401e-06
1140.9	0.561401	-4.66919e-06
1145.28	0.561646	1.97754e-05
1149.6	0.561096	-6.10352e-08
1153.92	0.561249	-3.20435e-06
1158.3	0.56012	2.46277e-05
1162.62	0.560669	-8.23975e-07
1166.94	0.560608	8.8501e-07
1171.32	0.561401	1.04675e-05
1175.64	0.56012	5.06592e-06
1179.96	0.561279	-6.98853e-06
1184.34	0.561523	7.84302e-06
1188.66	0.561035	-1.52588e-06
1192.98	0.559967	6.56128e-06
1197.36	0.561432	7.08008e-06
1201.68	0.560089	5.98145e-06
1206	0.56076	-1.25122e-06
1210.38	0.561371	6.073e-06
1214.7	0.560181	6.13403e-06
1219.02	0.561401	-4.30298e-06
1223.4	0.56015	1.17798e-05
1227.72	0.560272	3.63159e-06
1232.04	0.560577	4.88281e-07
1236.42	0.561401	2.56348e-06
1240.74	0.559937	4.5166e-06
1245.06	0.561218	-1.25122e-06
1249.44	0.561035	3.479e-06
1253.76	0.560303	2.65503e-06
1258.1	-0.697571	-0.020578
1262.46	0.561462	7.01904e-07
1266.78	0.560608	2.16675e-06
1271.12	-0.697723	-0.0154907
1275.48	0.561646	-4.57764e-07
1279.8	0.561035	-1.7395e-06
1284.14	-0.698029	-0.0125549
1288.5	0.561523	-2.19727e-06
1292.82	0.56131	-3.9978e-06
1297.16	-0.697968	-0.0107513
1301.52	0.560669	1.43433e-06
1305.84	0.560211	3.44849e-06
1310.2	-0.000772095	0.00923767
1314.54	0.561615	-1.58691e-06
1318.86	0.559967	3.54004e-06
1323.22	0.00085144	0.00602844
1327.56	0.560455	5.70679e-06
1331.88	0.560059	4.27246e-06
1336.24	0.0009765625	0.0037915
1340.58	0.560059	8.78906e-06
1344.9	0.560059	5.24902e-06
1349.26	0.000994873	0.00228516
1353.6	0.560303	5.40161e-06
1357.92	0.560028	5.43213e-06
1362.3	0.55957	0.0128326
1366.62	0.559937	8.20923e-06
1370.94	0.561188	-4.5166e-06
1375.32	0.561401	0.000208191
1379.64	0.559937	7.72095e-06
1383.96	0.560272	3.38745e-06
1388.34	0.560059	8.3313e-05
1392.66	0.560181	8.39233e-06
1396.98	0.560547	2.13623e-07
1401.36	0.561157	4.33044e-05
1405.68	0.561554	-2.34985e-06
1410	0.561371	-4.48608e-06
1414.38	0.561523	2.6123e-05
1418.7	0.560883	1.67847e-06
1423.02	0.560974	-2.38037e-06
1427.4	0.560333	2.80762e-05
1431.72	0.560303	5.76782e-06
1436.04	0.560974	-1.80054e-06
1440.42	0.561371	1.59912e-05
1444.74	0.560089	6.37817e-06
1449.06	0.560303	3.20435e-06
1453.44	0.56012	2.09351e-05
1457.76	0.56012	6.92749e-06
1462.08	0.559937	4.21143e-06
1466.46	0.561462	7.84302e-06
1470.78	0.56015	6.40869e-06
1475.1	0.561157	-4.97437e-06
1479.48	0.559998	1.70288e-05
1481.66	0.561035	-3.57056e-06