File: Edgar/20240607/20240607/electrodeposition_pulsed_potential_20240607_A/pulses_0_to_1000.txt
Time (s)	WE(1).Potential (V)	WE(1).Current (A)
183.139	-0.698578	-0.00298035
185.479	6.71387e-05	9.56116e-05
187.799	0.000350952	3.01208e-05
190.139	-0.699463	-0.00376007
192.479	0.000964355	0.000209137
194.799	-0.000375366	4.62952e-05
197.139	-0.698395	-0.00579346
199.479	-0.000497437	0.000405579
201.799	-0.000411987	8.79517e-05
204.139	-0.698486	-0.00789795
206.479	0.000701904	0.000762024
208.799	-0.000704956	8.79211e-05
211.139	-0.699524	-0.00964661
213.479	-0.000378418	0.00147491
215.799	-8.54492e-05	6.57959e-05
218.139	-0.699005	-0.0109497
220.479	-0.000384521	0.00267181
222.799	-9.15527e-05	4.37622e-05
225.139	-0.698334	-0.0119629
227.479	-0.000323486	0.0039859
229.799	-0.000109863	3.6438e-05
232.139	-0.698486	-0.0127808
234.479	0.000790405	0.00513306
236.799	-0.000430298	2.771e-05
239.139	-0.698975	-0.013443
241.479	-0.000231934	0.00607635
243.799	0.000305176	1.83411e-05
246.139	-0.698029	-0.0140228
248.479	0.000796509	0.00682953
250.799	-0.00067749	2.14233e-05
253.139	-0.698151	-0.0145081
255.479	-9.15527e-05	0.0074527
257.799	-0.000567627	2.05688e-05
260.139	-0.698059	-0.0149231
262.479	0.000598145	0.00796204
264.799	0.000653076	1.00403e-05
267.139	-0.698761	-0.0152802
269.479	0.000393677	0.00839844
271.799	0.000906372	1.27563e-05
274.139	-0.69812	-0.0156006
276.479	-0.00067749	0.0087616
278.799	-0.000286865	2.28271e-05
281.139	-0.699554	-0.0158936
283.479	-0.000750732	0.00906372
285.799	0.000970459	1.98975e-05
288.139	-0.697754	-0.016153
290.479	0.000509644	0.00932617
292.799	0.000311279	2.75269e-05
295.139	-0.698883	-0.01640625
297.479	0.000787354	0.00955811
299.799	0.000778198	3.41492e-05
302.139	-0.699097	-0.0166077
304.479	-0.000494385	0.00976868
306.799	0.000598145	4.88281e-05
309.139	-0.699066	-0.016806
311.479	-0.000799561	0.00994263
313.799	0.000787354	5.859375E-05
316.139	-0.69931	-0.0169983
318.479	0.000613403	0.0100983
320.799	-0.00027771	8.27942e-05
323.139	-0.698761	-0.0171906
325.479	-0.000299072	0.0102356
327.799	-0.00057373	9.58252e-05
330.139	-0.699005	-0.0173431
332.479	-0.000765991	0.0103851
334.799	0.000753784	0.000102051
337.139	-0.698761	-0.0175018
339.479	-0.000201416	0.0105072
341.799	-0.000143433	0.000130219
344.139	-0.697937	-0.0176666
346.479	0.000152588	0.0106171
348.799	-0.000161743	0.000150848
351.139	-0.697662	-0.0178131
353.479	0.000805664	0.0107086
355.799	0.000372314	0.000168701
358.139	-0.69928	-0.0179413
360.479	-0.000286865	0.0107971
362.799	0.000137329	0.00018924
365.139	-0.697784	-0.0180725
367.479	0.000323486	0.0108795
369.799	-0.000570679	0.000224365
372.139	-0.698547	-0.0181885
374.479	0.000259399	0.0109589
376.799	-5.18799e-05	0.000243011
379.139	-0.699097	-0.0183044
381.479	-0.000875854	0.0110291
383.799	-0.00055542	0.000277649
386.139	-0.698792	-0.0184143
388.479	-0.000842285	0.0110992
390.799	9.46045e-05	0.00030368
393.139	-0.698273	-0.0185455
395.479	-0.00012207	0.0111511
397.799	-0.000540161	0.000339996
400.139	-0.699219	-0.018634
402.479	-0.000863647	0.0112244
404.799	-0.000756836	0.000370087
407.139	-0.697845	-0.0187317
409.479	-0.000213623	0.0112762
411.799	-0.000588989	0.000402252
414.139	-0.699249	-0.0188202
416.479	0.000408936	0.0113251
418.799	0.000424194	0.000424164
421.139	-0.699188	-0.0189178
423.479	0.00012207	0.0113495
425.799	-0.00067749	0.000469025
428.139	-0.698212	-0.0190033
430.479	-0.000759888	0.0114075
432.799	-0.000186157	0.000499786
435.139	-0.699249	-0.0190857
437.479	-6.71387e-05	0.0114258
439.799	0.00103149	0.000527649
442.139	-0.699219	-0.019162
444.479	-0.000628662	0.0114685
446.799	0.00104065	0.000560303
449.139	-0.699097	-0.0192383
451.479	-0.000439453	0.0115082
453.799	0.000601196	0.000601196
456.139	-0.697906	-0.0193237
458.479	0.000515747	0.0115295
460.799	0.000186157	0.000643616
463.139	-0.699066	-0.0193939
465.479	0.000363159	0.0115631
467.799	-0.000552368	0.000678406
470.139	-0.698395	-0.0194702
472.479	-0.000714111	0.0115845
474.799	0.000906372	0.000702515
477.139	-0.699005	-0.0195343
479.479	-0.000860596	0.0116119
481.799	-0.000363159	0.000752563
484.139	-0.698425	-0.0196045
486.479	0.000668335	0.0116241
488.799	0.000598145	0.000777588
491.139	-0.699158	-0.0196686
493.479	-0.000817871	0.0116486
495.799	0.000994873	0.000813904
498.139	-0.698303	-0.0197205
500.479	-0.000234985	0.011676
502.799	-0.000515747	0.000856323
505.139	-0.698883	-0.0197998
507.479	0.00022583	0.0116852
509.799	0.00098877	0.000887756
512.139	-0.698151	-0.0198608
514.479	-5.18799e-05	0.0117096
516.799	-0.000640869	0.000932007
519.139	-0.69751	-0.0199158
521.479	0.000326538	0.0117035
523.799	0.00103455	0.000959473
526.139	-0.698273	-0.0199738
528.479	-0.000604248	0.011731
530.799	0.00111694	0.000998535
533.139	-0.698853	-0.0200134
535.479	-0.000823975	0.0117401
537.799	-0.000152588	0.00104553
540.139	-0.697388	-0.0200745
542.479	-0.000964355	0.0117554
544.799	0.00102844	0.00107178
547.139	-0.698273	-0.0201294
549.479	-0.00093689	0.0117584
551.799	-2.74658e-05	0.00111298
554.139	-0.699036	-0.020166
556.479	0.000604248	0.0117645
558.799	-0.000473022	0.00115723
561.139	-0.698883	-0.0202148
563.479	0.00045166	0.0117828
565.799	0.000775146	0.00118195
568.139	-0.698761	-0.0202698
570.479	-0.0010376	0.0117889
572.799	-0.000524902	0.00123108
575.139	-0.698456	-0.0203156
577.479	-0.000894165	0.0118011
579.799	0.0009765625	0.00125519
582.139	-0.698944	-0.0203461
584.479	0.000518799	0.0118073
586.799	-0.000109863	0.00130219
589.139	-0.699036	-0.0203979
591.479	0.000256348	0.0117981
593.799	-0.000387573	0.00134216
596.139	-0.697601	-0.0204498
598.479	-0.00106201	0.0118134
600.799	0.000881958	0.00136414
603.139	-0.699097	-0.0204803
605.479	-0.00107422	0.0118195
607.799	0.00113831	0.0014032
610.139	-0.699066	-0.0205139
612.479	0.00072937	0.0118225
614.799	-0.00067749	0.00144684
617.139	-0.698975	-0.0205627
619.479	0.000604248	0.0118256
621.799	-0.000234985	0.00148712
624.139	-0.697754	-0.0205933
626.479	0.000515747	0.0118164
628.799	0.000164795	0.00151062
631.139	-0.69754	-0.020639
633.479	-0.000610352	0.0118347
635.799	0.000946045	0.00154266
638.139	-0.698639	-0.0206635
640.479	-0.000656128	0.0118134
642.799	-0.000534058	0.00158936
645.139	-0.697571	-0.0207031
647.479	-0.000601196	0.0118134
649.799	0.000842285	0.00161743
652.139	-0.698425	-0.0207336
654.479	0.000582886	0.0118256
656.799	-0.000616455	0.00166046
659.139	-0.698608	-0.0207611
661.479	0.000250244	0.0118317
663.8	0.00112915	0.00168732
666.14	-0.697968	-0.0208191
668.48	-0.000238037	0.0118286
670.8	-0.000579834	0.00173096
673.14	-0.698761	-0.0208435
675.48	-0.000839233	0.0118164
677.8	-9.15527e-06	0.00175812
680.14	-0.699036	-0.0208588
682.48	-0.000430298	0.0118042
684.8	0.000741577	0.001796875
687.14	-0.697418	-0.0209015
689.48	-0.000125122	0.0118225
691.8	0.000265503	0.00182922
694.14	-0.697662	-0.0209351
696.48	-0.000952148	0.0118134
698.8	-0.000332642	0.00186584
701.14	-0.69809	-0.0209503
703.48	-0.000149536	0.0117889
705.8	0.000991821	0.00188812
708.14	-0.698029	-0.020993
710.48	0.000350952	0.0118073
712.8	-0.000265503	0.00192841
715.14	-0.698486	-0.0210022
717.48	-0.000613403	0.0118103
719.8	-0.000357056	0.00196564
722.14	-0.697479	-0.0210358
724.48	0.000558472	0.0117859
726.8	8.8501e-05	0.00199615
729.14	-0.698944	-0.0210632
731.48	-0.00067749	0.011792
733.8	0.000991821	0.00201843
736.14	-0.697723	-0.0210968
738.48	0.000619507	0.0117706
740.8	-0.000714111	0.00206055
743.14	-0.698212	-0.021109
745.48	-4.88281e-05	0.0117828
747.8	-0.000274658	0.00209442
750.14	-0.69809	-0.0211426
752.48	-0.000814819	0.0117737
754.8	0.000515747	0.00212036
757.14	-0.697906	-0.02117
759.48	-0.000692749	0.0117645
761.8	0.000167847	0.00215302
764.14	-0.699066	-0.0211761
766.48	0.000418091	0.0117432
768.8	5.79834e-05	0.0021814
771.14	-0.699005	-0.0211945
773.48	0.000610352	0.0117523
775.8	-0.000598145	0.00221924
778.14	-0.697235	-0.0212219
780.48	-0.000686646	0.0117493
782.8	0.000921631	0.00223694
785.14	-0.698822	-0.0212372
787.48	-0.000897217	0.011734
789.8	-5.79834e-05	0.00227325
792.14	-0.698669	-0.0212585
794.48	-0.000787354	0.0117249
796.8	0.000924683	0.00230042
799.14	-0.698151	-0.0213043
801.48	-0.00102844	0.0117279
803.8	-0.000582886	0.00233826
806.14	-0.698914	-0.0213165
808.48	-0.0006073	0.0117035
810.8	0.00100708	0.00235809
813.14	-0.697418	-0.0213379
815.48	0.000170898	0.0117096
817.8	-0.000531006	0.00239685
820.14	-0.69809	-0.0213501
822.48	-0.000674438	0.0116974
824.8	-3.66211e-05	0.00242218
827.14	-0.697388	-0.0213898
829.48	0.000720215	0.0116943
831.8	0.000863647	0.00244781
834.14	-0.697235	-0.0213959
836.48	3.96729e-05	0.011676
838.8	-3.05176e-05	0.0024881
841.14	-0.697357	-0.0214172
843.48	-1.52588e-05	0.011673
845.8	-0.000314331	0.0025177
848.14	-0.698792	-0.0214294
850.48	4.27246e-05	0.011676
852.8	-0.000317383	0.00254364
855.14	-0.697998	-0.0214539
857.48	0.000405884	0.0116577
859.8	0.000631714	0.0025592
862.14	-0.698761	-0.02146
864.48	-0.000973511	0.0116516
866.8	0.000195313	0.00258972
869.14	-0.698059	-0.0214752
871.48	-0.000692749	0.0116394
873.8	0.000564575	0.00261353
876.14	-0.697479	-0.0215027
878.48	0.000463867	0.0116302
880.8	-0.000585937	0.0026535
883.1	0.000192261	0.00040979