File: Edgar/20240607/20240607/electrodeposition_pulsed_potential_20240607_A/pulses_3000_to_4000.txt
Time (s)	WE(1).Potential (V)	WE(1).Current (A)
2310.09	-0.697205	-0.02421875
2312.43	-0.000476074	0.0100098
2314.75	3.05176e-05	0.00496918
2317.09	-0.698792	-0.0219391
2319.43	0.000354004	0.0100891
2321.75	0.000588989	0.00501129
2324.09	-0.699066	-0.0219177
2326.43	-0.000595093	0.0101074
2328.75	0.000180054	0.00502228
2331.09	-0.697937	-0.0219177
2333.43	-0.000735474	0.0100922
2335.75	0.000842285	0.00503113
2338.09	-0.698273	-0.0218964
2340.43	0.00057373	0.0101013
2342.75	-0.00017395	0.00504425
2345.09	-0.698578	-0.0218964
2347.43	-0.000808716	0.0101044
2349.75	-0.000350952	0.00504852
2352.09	-0.698914	-0.0218964
2354.43	-0.000161743	0.01008
2356.75	-0.000598145	0.00505981
2359.09	-0.698883	-0.0218842
2361.43	-0.000952148	0.0100861
2363.75	0.000256348	0.00506256
2366.09	-0.697784	-0.0218903
2368.43	0.00015564	0.0100769
2370.75	-0.000650024	0.00507355
2373.09	-0.697449	-0.0218872
2375.43	-0.000869751	0.0100861
2377.75	-0.000717163	0.005078125
2380.09	-0.698914	-0.0218719
2382.43	0.000546265	0.01008
2384.75	-0.00057373	0.00508759
2387.09	-0.697906	-0.0218872
2389.43	-0.000119019	0.0100586
2391.75	-2.44141e-05	0.00508301
2394.09	-0.698822	-0.0218658
2396.43	0.000613403	0.0100586
2398.75	0.00065918	0.0050827
2401.09	-0.697601	-0.0218719
2403.43	0.000378418	0.0100616
2405.75	0.000814819	0.00509033
2408.09	-0.698944	-0.0218689
2410.43	-0.000265503	0.0100586
2412.75	0.000973511	0.00509399
2415.09	-0.698303	-0.021875
2417.43	-0.00090332	0.0100555
2419.75	0	0.00511108
2422.09	-0.697327	-0.0218781
2424.43	4.57764e-05	0.0100342
2426.75	-0.000704956	0.00511475
2429.09	-0.699036	-0.0218628
2431.43	0.000305176	0.0100403
2433.75	0.000857544	0.00510834
2436.09	-0.697327	-0.021875
2438.43	2.13623e-05	0.0100311
2440.75	-0.000698853	0.00512207
2443.09	-0.698181	-0.0218567
2445.43	0.000476074	0.0100372
2447.75	0.000582886	0.00511414
2450.09	-0.697998	-0.0218781
2452.43	0.00017395	0.010022
2454.75	-0.000650024	0.00514191
2457.09	-0.698669	-0.0218597
2459.43	0.000445557	0.010025
2461.75	0.000405884	0.00513885
2464.09	-0.697845	-0.0218628
2466.43	-0.00090332	0.010025
2468.75	0.000958252	0.00513397
2471.09	-0.697662	-0.0218597
2473.43	0.000387573	0.0100067
2475.75	0.000180054	0.00514801
2478.09	-0.698914	-0.0218506
2480.43	-0.00072937	0.0100067
2482.75	-0.000512695	0.00515076
2485.09	-0.698822	-0.0218414
2487.43	-0.000753784	0.0100006
2489.75	3.05176e-06	0.00514923
2492.09	-0.697357	-0.0218597
2494.43	-0.000708008	0.00998535
2496.75	0.00065918	0.0051474
2499.09	-0.698822	-0.0218475
2501.43	0.000836182	0.0099823
2503.75	-0.000506592	0.00516113
2506.09	-0.698761	-0.0218323
2508.43	0.000708008	0.00997925
2510.75	-0.000195313	0.00515961
2513.09	-0.698822	-0.0218262
2515.43	0.000253296	0.00995789
2517.75	-0.000701904	0.00516998
2520.09	-0.697357	-0.0218384
2522.43	0.00062561	0.00996399
2524.75	0.000576782	0.00516418
2527.09	-0.697845	-0.0218353
2529.43	-0.000436401	0.00995483
2531.75	0.000827026	0.00516815
2534.09	-0.697418	-0.0218414
2536.43	0.000680542	0.00995178
2538.75	9.76562e-05	0.00518005
2541.09	-0.698883	-0.0218262
2543.43	-0.000793457	0.00995789
2545.75	0.000674438	0.00518005
2548.09	-0.698151	-0.0218475
2550.43	-0.000112915	0.00995483
2552.75	0.000204468	0.00519104
2555.09	-0.698242	-0.0218384
2557.43	-0.000262451	0.00992737
2559.75	-0.000744629	0.0051886
2562.09	-0.697815	-0.0218323
2564.43	-0.00090332	0.00993958
2566.75	-0.000759888	0.00519928
2569.09	-0.698334	-0.0218262
2571.43	-0.000402832	0.00993652
2573.75	-0.000708008	0.00519806
2576.09	-0.698944	-0.0218201
2578.43	0.000552368	0.00991516
2580.75	0.000646973	0.00519989
2583.09	-0.698883	-0.021814
2585.43	-0.000167847	0.00992737
2587.75	7.62939e-05	0.00520905
2590.09	-0.697632	-0.0218262
2592.43	-0.000793457	0.00990601
2594.75	-0.000668335	0.00521088
2597.09	-0.697937	-0.0218018
2599.43	0.000537109	0.00990295
2601.75	0.000845337	0.00520569
2604.09	-0.698181	-0.0217987
2606.43	-0.000881958	0.00990295
2608.75	-1.52588e-05	0.00522064
2611.09	-0.697754	-0.021814
2613.43	-6.71387e-05	0.00988159
2615.75	-0.000653076	0.00522247
2618.09	-0.698029	-0.021814
2620.43	0.000161743	0.00987854
2622.75	-0.00062561	0.0052298
2625.09	-0.698212	-0.0217957
2627.43	0.000540161	0.00987549
2629.75	-0.000390625	0.005224
2632.09	-0.698975	-0.0217987
2634.43	0.000643921	0.00987549
2636.75	-0.000741577	0.00523651
2639.09	-0.697388	-0.0218048
2641.43	-0.000247192	0.00988159
2643.75	0.000518799	0.00522644
2646.09	-0.697906	-0.0218018
2648.43	0.000354004	0.00985413
2650.75	0.00101013	0.00523254
2653.09	-0.698761	-0.0217896
2655.43	-0.000665283	0.00986633
2657.75	0.000601196	0.00523346
2660.09	-0.698853	-0.0217804
2662.43	0.000662231	0.00985107
2664.75	0.000830078	0.00524689
2667.09	-0.698669	-0.0217773
2669.43	-0.000387573	0.00986328
2671.75	0.000158691	0.00524445
2674.09	-0.69812	-0.0217987
2676.43	-0.000894165	0.00984802
2678.75	0.000137329	0.00526215
2681.09	-0.697693	-0.0217865
2683.43	0.000610352	0.00983582
2685.75	-0.000509644	0.0052652
2688.09	-0.697296	-0.0217896
2690.43	0.000299072	0.00984192
2692.75	0.000384521	0.00525726
2695.09	-0.697815	-0.0217834
2697.43	-0.00043335	0.00982666
2699.75	0.000790405	0.00526062
2702.09	-0.698273	-0.0217743
2704.43	0.000424194	0.00982971
2706.75	0.000387573	0.00527008
2709.09	-0.697418	-0.0217896
2711.43	0.000646973	0.00982056
2713.75	-0.000665283	0.00527985
2716.09	-0.697357	-0.0217865
2718.43	-0.000930786	0.00982361
2720.75	0.000854492	0.00527466
2723.09	-0.698059	-0.0217865
2725.43	-0.000949097	0.0098175
2727.75	-0.000228882	0.00528625
2730.09	-0.69754	-0.0217896
2732.43	-0.00102234	0.0098114
2734.75	0.000350952	0.00528595
2737.09	-0.698334	-0.0217651
2739.43	-0.00012207	0.00978699
2741.75	-0.000146484	0.00528595
2744.09	-0.699005	-0.0217651
2746.43	-0.000509644	0.0098053
2748.75	-0.00065918	0.0052951
2751.09	-0.697968	-0.0217804
2753.43	-0.000787354	0.00979919
2755.75	0.000723267	0.00529388
2758.09	-0.698944	-0.0217621
2760.43	-0.000268555	0.00978088
2762.75	0.000979614	0.00529633
2765.09	-0.698608	-0.0217621
2767.43	-0.000857544	0.00977783
2769.75	9.46045e-05	0.00530457
2772.09	-0.69873	-0.0217438
2774.43	-0.000942993	0.00977478
2776.75	-0.000134277	0.00530304
2779.09	-0.697418	-0.0217621
2781.43	0.000244141	0.00975342
2783.75	0.000723267	0.00530151
2786.09	-0.698303	-0.021759
2788.43	0.000631714	0.009765625
2790.75	0.000534058	0.00530609
2793.09	-0.698761	-0.0217529
2795.43	-0.000973511	0.00975952
2797.75	0.000869751	0.00531036
2800.09	-0.698151	-0.021759
2802.43	-0.000805664	0.00975647
2804.75	-0.000418091	0.00532013
2807.09	-0.698914	-0.0217529
2809.43	-0.000704956	0.00974426
2811.75	0.00105591	0.00531921
2814.09	-0.698547	-0.0217499
2816.43	-0.000857544	0.00974426
2818.75	0.000921631	0.00532196
2821.09	-0.697418	-0.0217499
2823.43	-0.000839233	0.00974121
2825.75	-0.000158691	0.00533234
2828.09	-0.698761	-0.0217285
2830.43	-0.00103455	0.0097229
2832.75	0.000341797	0.0053299
2835.09	-0.699005	-0.0217377
2837.43	0.000549316	0.00971985
2839.75	0.00106812	0.00533081
2842.09	-0.698669	-0.0217255
2844.43	7.32422e-05	0.0097229
2846.75	-0.000164795	0.00534576
2849.09	-0.697235	-0.0217377
2851.43	5.49316e-05	0.0097168
2853.75	0.000231934	0.00533905
2856.09	-0.698334	-0.0217316
2858.43	0.000164795	0.00969849
2860.75	-0.000683594	0.00535095
2863.09	-0.697418	-0.0217407
2865.43	-0.000811768	0.00969543
2867.75	-9.15527e-05	0.00535187
2870.09	-0.699005	-0.0217163
2872.43	0.000115967	0.00970459
2874.75	0.000720215	0.00534454
2877.09	-0.698883	-0.0217316
2879.43	0.000527954	0.00969238
2881.75	0.000552368	0.00535797
2884.09	-0.697296	-0.0217285
2886.43	-0.000234985	0.00968018
2888.75	-0.000619507	0.00536652
2891.09	-0.698822	-0.0217102
2893.43	-0.000808716	0.00968323
2895.75	0.000286865	0.00536072
2898.09	-0.698853	-0.0217163
2900.43	0.00071106	0.00967102
2902.75	0.000909424	0.00536163
2905.09	-0.698364	-0.0217346
2907.43	-0.000500488	0.00968018
2909.75	0.000637817	0.00536102
2912.09	-0.698456	-0.0217163
2914.43	-0.000128174	0.00966797
2916.75	-0.000564575	0.00537323
2919.09	-0.697296	-0.0217133
2921.43	-0.000613403	0.00966797
2923.75	0.0009552	0.00536743
2926.09	-0.697784	-0.0217224
2928.43	-1.83105e-05	0.00966492
2930.75	0.000177002	0.00537659
2933.09	-0.697357	-0.0217133
2935.43	0.000512695	0.00963745
2937.75	-0.000524902	0.00538696
2940.09	-0.697418	-0.021701
2942.43	0.000335693	0.00963135
2944.75	-0.000308228	0.00538239
2947.09	-0.698181	-0.0216919
2949.43	0.000686646	0.00962219
2951.75	0.000247192	0.00538055
2954.09	-0.697998	-0.0217102
2956.43	-2.44141e-05	0.00963745
2958.75	0.000900269	0.0053894
2961.09	-0.698364	-0.0216827
2963.43	-0.000817871	0.00963135
2965.75	-0.00050354	0.00539337
2968.09	-0.698181	-0.021698
2970.43	-0.000775146	0.0096283
2972.75	0.000915527	0.00538818
2975.09	-0.697571	-0.0216949
2977.43	-0.00104675	0.00961304
2979.75	0.000930786	0.00539337
2982.09	-0.697327	-0.0216827
2984.43	-0.000289917	0.00961609
2986.75	-0.000704956	0.00540039
2989.09	-0.698792	-0.0216797
2991.43	-0.000918579	0.00960693
2993.75	-0.000186157	0.00540833
2996.09	-0.698853	-0.0216827
2998.43	-0.000457764	0.00960999
3000.75	0.000512695	0.00540833
3003.09	-0.697845	-0.0216766
3005.43	0.000125122	0.00960083
3007.75	0.000744629	0.00540375
3010.05	-0.000256348	0.00310425