File: Edgar/20240607/20240607/electrodeposition_pulsed_potential_20240607_A/pulses_2000_to_3000.txt
Time (s)	WE(1).Potential (V)	WE(1).Current (A)
1601.09	-0.697266	-0.0234802
1603.43	0.000390625	0.0106506
1605.75	-0.000445557	0.00425751
1608.09	-0.698578	-0.0220734
1610.43	-0.000393677	0.0107239
1612.75	-0.000241089	0.00428833
1615.09	-0.697327	-0.022052
1617.43	-0.000274658	0.0107452
1619.75	-0.000466919	0.00432709
1622.09	-0.697601	-0.0220642
1624.43	0.000442505	0.0107635
1626.75	0.000473022	0.00434235
1629.09	-0.698792	-0.0220459
1631.43	0.000460815	0.0107422
1633.75	0.000222778	0.00434753
1636.09	-0.697479	-0.0220428
1638.43	-0.000753784	0.0107544
1640.75	-0.000256348	0.00436798
1643.09	-0.698151	-0.0220428
1645.43	0.000268555	0.01073
1647.75	0.00039978	0.00437042
1650.09	-0.698029	-0.022049
1652.43	0.000524902	0.01073
1654.75	-0.000411987	0.00438995
1657.09	-0.697418	-0.0220459
1659.43	-0.000378418	0.0107391
1661.75	-0.000622559	0.00439728
1664.09	-0.697357	-0.0220398
1666.43	3.05176e-06	0.010733
1668.75	-0.000244141	0.00440918
1671.09	-0.69751	-0.0220367
1673.43	0.000561523	0.0107147
1675.75	-0.000283813	0.00441528
1678.09	-0.69812	-0.0220367
1680.43	0.000445557	0.0107178
1682.75	0.000982666	0.00441925
1685.09	-0.697388	-0.0220306
1687.43	0.000183105	0.0107117
1689.75	-0.000540161	0.00444336
1692.09	-0.697266	-0.0220337
1694.43	0.000668335	0.0106934
1696.75	0.000640869	0.00444031
1699.09	-0.697632	-0.0220184
1701.43	-0.00101624	0.0106873
1703.75	0.000299072	0.00444794
1706.09	-0.697479	-0.0220184
1708.43	0.00027771	0.010672
1710.75	0.000942993	0.00445831
1713.09	-0.698395	-0.0220123
1715.43	0.000524902	0.0106781
1717.75	-0.000537109	0.00446991
1720.09	-0.698761	-0.0220093
1722.43	-0.000241089	0.0106628
1724.75	-0.000311279	0.00448212
1727.09	-0.69873	-0.0220123
1729.43	-0.000830078	0.0106567
1731.75	-0.000482178	0.00449036
1734.09	-0.698669	-0.0220093
1736.43	0.000653076	0.0106445
1738.75	0.000427246	0.00448761
1741.09	-0.698486	-0.0220306
1743.43	0.000283813	0.0106384
1745.75	0.000390625	0.00449524
1748.09	-0.697601	-0.0220337
1750.43	0.000604248	0.0106384
1752.75	0.000680542	0.00451111
1755.09	-0.698822	-0.0220062
1757.43	-0.000476074	0.0106232
1759.75	-0.000296021	0.00452057
1762.09	-0.697906	-0.0220276
1764.43	-0.000808716	0.0106354
1766.75	-0.000485229	0.00452972
1769.09	-0.698761	-0.0220245
1771.43	0	0.0106262
1773.75	0.000720215	0.00453369
1776.09	-0.698029	-0.0220276
1778.43	0.000463867	0.010614
1780.75	0.00078125	0.00453979
1783.09	-0.697723	-0.0220154
1785.43	-9.76562e-05	0.0105957
1787.75	0.00022583	0.00454529
1790.09	-0.697296	-0.0220184
1792.43	0.000488281	0.0105957
1794.75	-0.000634766	0.00456116
1797.09	-0.697388	-0.0220154
1799.43	-0.000106812	0.0105774
1801.75	0.000619507	0.00456055
1804.09	-0.698364	-0.0220062
1806.43	-0.00020752	0.0105896
1808.75	-0.000338745	0.00457458
1811.09	-0.697327	-0.0220184
1813.43	-0.000204468	0.0105835
1815.75	-0.000671387	0.0045874
1818.09	-0.698303	-0.0220215
1820.43	0.000595093	0.0105652
1822.75	-0.000219727	0.00459473
1825.09	-0.698853	-0.0220032
1827.43	0.000646973	0.0105591
1829.75	-0.00067749	0.00460297
1832.09	-0.697418	-0.0220123
1834.43	0.000622559	0.0105469
1836.75	1.2207e-05	0.00460358
1839.09	-0.69751	-0.0220123
1841.43	-0.000939941	0.010556
1843.75	0.000640869	0.00461731
1846.09	-0.698853	-0.0220123
1848.43	0.000186157	0.010553
1850.75	-0.000439453	0.00463013
1853.09	-0.697449	-0.0220123
1855.43	-0.000891113	0.0105469
1857.75	0.00072937	0.00462708
1860.09	-0.698792	-0.0220062
1862.43	0.000430298	0.0105347
1864.75	0.000271606	0.00464722
1867.09	-0.697906	-0.0220093
1869.43	-0.00093689	0.0105316
1871.75	-1.52588e-05	0.00465363
1874.09	-0.697205	-0.0220154
1876.43	0.000512695	0.0105286
1878.75	-0.000604248	0.00466034
1881.09	-0.698792	-0.0220032
1883.43	0.000149536	0.0105225
1885.75	-0.000546265	0.00466705
1888.09	-0.697723	-0.0220093
1890.43	0.000170898	0.010495
1892.75	-0.000604248	0.0046756
1895.09	-0.698273	-0.0220123
1897.43	-0.000747681	0.010495
1899.75	0.000115967	0.00467987
1902.09	-0.698761	-0.0220001
1904.43	0.000265503	0.0104858
1906.75	0.000436401	0.0046875
1909.09	-0.698944	-0.0219971
1911.43	-0.000335693	0.0104767
1913.75	0.000628662	0.00468323
1916.09	-0.697662	-0.021994
1918.43	0.000201416	0.0104828
1920.75	0.000341797	0.00469208
1923.09	-0.697357	-0.0220032
1925.43	-0.000448608	0.0104767
1927.75	0.000695801	0.00470123
1930.09	-0.698853	-0.0219879
1932.43	-0.000701904	0.0104645
1934.75	-0.000494385	0.00471497
1937.09	-0.698853	-0.0219818
1939.43	-0.000106812	0.0104614
1941.75	-0.000592041	0.00472137
1944.09	-0.69873	-0.0219788
1946.43	0.000820923	0.0104492
1948.75	-0.000698853	0.00472565
1951.09	-0.697388	-0.0220001
1953.43	0.000653076	0.010437
1955.75	0.00090332	0.00472137
1958.09	-0.697266	-0.021994
1960.43	-7.93457e-05	0.0104248
1962.75	0.000466919	0.00472717
1965.09	-0.697723	-0.0219971
1967.43	0.000741577	0.010434
1969.75	0.000912476	0.0047348
1972.09	-0.697693	-0.021994
1974.43	-0.00043335	0.0104279
1976.75	0.00055542	0.00474518
1979.09	-0.697388	-0.0219849
1981.43	0.000662231	0.0104126
1983.75	0.000515747	0.00475708
1986.09	-0.697601	-0.021991
1988.43	-0.000811768	0.0104187
1990.75	0.000946045	0.00475677
1993.09	-0.698883	-0.0219757
1995.43	0.00062561	0.0104004
1997.75	-0.000640869	0.0047757
2000.09	-0.698334	-0.021991
2002.43	-0.000643921	0.0103973
2004.75	-0.000308228	0.00477448
2007.09	-0.697174	-0.0219849
2009.43	0.000756836	0.0103912
2011.75	-0.000585937	0.00479156
2014.09	-0.698914	-0.0219818
2016.43	0.000372314	0.0103882
2018.75	-0.00043335	0.00479736
2021.09	-0.698395	-0.0219788
2023.43	0.000408936	0.0103699
2025.75	-0.000765991	0.00480072
2028.09	-0.697601	-0.0219696
2030.43	0.000311279	0.0103668
2032.75	-0.000634766	0.00480713
2035.09	-0.697845	-0.0219727
2037.43	-0.000128174	0.0103577
2039.75	0.000109863	0.0048111
2042.09	-0.697357	-0.0219788
2044.43	-0.000820923	0.0103668
2046.75	0.00012207	0.00481628
2049.09	-0.698669	-0.0219788
2051.43	0.000314331	0.0103546
2053.75	0.000814819	0.00481812
2056.09	-0.697571	-0.0219666
2058.43	-0.000411987	0.0103394
2060.75	0.000744629	0.00482666
2063.09	-0.6987	-0.0219696
2065.43	-0.000769043	0.0103302
2067.75	-0.000643921	0.00483765
2070.09	-0.697388	-0.0219696
2072.43	-0.000854492	0.0103394
2074.75	0.00104675	0.00483307
2077.09	-0.698547	-0.0219696
2079.43	0.000323486	0.0103149
2081.75	0.000543213	0.00484192
2084.09	-0.697784	-0.0219727
2086.43	-0.000140381	0.0103333
2088.75	0.000857544	0.00484467
2091.09	-0.698273	-0.0219452
2093.43	-0.0009552	0.010318
2095.75	-0.000665283	0.00486298
2098.09	-0.6987	-0.0219482
2100.43	-0.000778198	0.0103058
2102.75	0.000286865	0.00486511
2105.09	-0.698547	-0.0219604
2107.43	0.000384521	0.0102997
2109.75	-0.000170898	0.00487335
2112.09	-0.698883	-0.0219513
2114.43	0.000463867	0.0103027
2116.75	0.000357056	0.00488037
2119.09	-0.698761	-0.0219421
2121.43	-0.00102539	0.0102936
2123.75	0.000604248	0.00488037
2126.09	-0.698822	-0.0219421
2128.43	0.000454712	0.0102722
2130.75	0.000753784	0.0048877
2133.09	-0.697937	-0.0219543
2135.43	0.000741577	0.0102844
2137.75	0.00090332	0.00488434
2140.09	-0.698975	-0.0219391
2142.43	0.000100708	0.0102783
2144.75	-0.000445557	0.00489685
2147.09	-0.697906	-0.021936
2149.43	-0.000921631	0.0102661
2151.75	-6.71387e-05	0.00490845
2154.09	-0.698425	-0.0219299
2156.43	-2.74658e-05	0.0102478
2158.75	-0.000622559	0.00491486
2161.09	-0.697296	-0.0219482
2163.43	0.000341797	0.0102478
2165.75	0.000598145	0.00491486
2168.09	-0.698669	-0.0219299
2170.43	-0.000527954	0.01026
2172.75	-5.49316e-05	0.00492523
2175.09	-0.697388	-0.021936
2177.43	-3.96729e-05	0.0102478
2179.75	-0.000708008	0.004935
2182.09	-0.698425	-0.0219177
2184.43	-0.00107117	0.0102325
2186.75	0.000820923	0.00492676
2189.09	-0.698883	-0.0219299
2191.43	-0.000930786	0.0102295
2193.75	-0.000326538	0.00493378
2196.09	-0.69809	-0.021936
2198.43	-5.79834e-05	0.0102142
2200.75	-0.000643921	0.00494995
2203.09	-0.697266	-0.0219391
2205.43	-0.000848389	0.0102234
2207.75	-0.000222778	0.00495453
2210.09	-0.697632	-0.021936
2212.43	4.88281e-05	0.010202
2214.75	0.000271606	0.00495056
2217.09	-0.698669	-0.0219269
2219.43	0.000601196	0.0102112
2221.75	-0.000292969	0.00496613
2224.09	-0.698456	-0.0219147
2226.43	-0.000897217	0.0102051
2228.75	-0.000793457	0.00496887
2231.09	-0.69754	-0.0219177
2233.43	0.000552368	0.0101898
2235.75	0.000671387	0.00496582
2238.09	-0.697815	-0.0219116
2240.43	-0.000775146	0.0101807
2242.75	-0.000637817	0.00498291
2245.09	-0.698212	-0.0219208
2247.43	0.000665283	0.0101837
2249.75	3.66211e-05	0.00497742
2252.09	-0.697113	-0.0219147
2254.43	-0.00045166	0.0101807
2256.75	-0.000515747	0.00499207
2259.09	-0.697266	-0.0219177
2261.43	-0.00032959	0.0101654
2263.75	0.000430298	0.00499603
2266.09	-0.698608	-0.0219055
2268.43	-0.000158691	0.0101715
2270.75	-0.000765991	0.00500305
2273.09	-0.697449	-0.0219177
2275.43	0.000634766	0.0101532
2277.75	-0.000283813	0.0050058
2280.09	-0.698792	-0.0219025
2282.43	-0.000997925	0.0101532
2284.75	0.000558472	0.00500488
2287.09	-0.697449	-0.0219238
2289.43	-0.000292969	0.0101593
2291.75	0.000811768	0.00501129
2294.09	-0.698853	-0.0218933
2296.43	-0.000390625	0.0101349
2298.75	0.0009552	0.00501251
2301.05	0.000961304	0.00243652