File: Edgar/20240607/20240607/electrodeposition_pulsed_potential_20240607_A/pulses_1000_to_2000.txt
Time (s)	WE(1).Potential (V)	WE(1).Current (A)
891.871	-0.697357	-0.0219086
894.211	0.000509644	0.0114594
896.531	-9.15527e-06	0.002578125
898.871	-0.697906	-0.0215485
901.211	-0.000259399	0.0115448
903.531	-0.000280762	0.00266174
905.871	-0.698273	-0.0215546
908.211	-0.000531006	0.0115875
910.531	-0.000518799	0.00270782
912.871	-0.697845	-0.021582
915.211	0.000463867	0.0115784
917.531	0.000299072	0.00273621
919.871	-0.699066	-0.0215759
922.211	-0.000769043	0.0115967
924.531	-0.000564575	0.00277069
926.871	-0.697784	-0.0216003
929.211	0.000540161	0.0115692
931.531	0.000973511	0.002789
933.871	-0.697998	-0.0215942
936.211	-0.000970459	0.0115753
938.531	-0.000454712	0.00282806
940.871	-0.699005	-0.0216125
943.211	-0.00101929	0.0115692
945.531	0.00107422	0.00284332
947.871	-0.698151	-0.0216309
950.211	0.000576782	0.0115662
952.531	-0.00072937	0.00287872
954.871	-0.697632	-0.02164
957.211	-0.00032959	0.0115662
959.531	-0.000662231	0.00290649
961.871	-0.698212	-0.0216461
964.211	0.000598145	0.0115417
966.531	0.000622559	0.0029245
968.871	-0.697876	-0.0216553
971.211	-0.000570679	0.0115509
973.531	-0.000119019	0.00294556
975.871	-0.697357	-0.0216797
978.211	0.000289917	0.0115265
980.531	0.000732422	0.00296875
982.871	-0.698914	-0.0216858
985.211	-0.000216675	0.0115295
987.531	-0.000344849	0.00300049
989.871	-0.698456	-0.021701
992.211	-0.000497437	0.0115204
994.531	0.000106812	0.00302032
996.871	-0.698181	-0.0217133
999.211	0.000460815	0.0114929
1001.53	-0.000357056	0.00304657
1003.87	-0.697388	-0.0217163
1006.21	-0.00062561	0.0114868
1008.53	0.00090332	0.00306091
1010.87	-0.697571	-0.0217255
1013.21	-0.000390625	0.0114716
1015.53	0.000881958	0.00307739
1017.87	-0.698212	-0.0217499
1020.21	-0.000695801	0.0114655
1022.53	0.000933838	0.00310028
1024.87	-0.698914	-0.0217377
1027.21	-0.000274658	0.0114746
1029.53	-0.000521851	0.00312958
1031.87	-0.698273	-0.0217468
1034.21	-0.000875854	0.0114655
1036.53	0.000396729	0.00315094
1038.87	-0.697357	-0.0217682
1041.21	-0.000854492	0.0114563
1043.53	0.000326538	0.00316437
1045.87	-0.697723	-0.0217712
1048.21	0.000424194	0.0114288
1050.53	0.00100098	0.00318481
1052.87	-0.697388	-0.0217896
1055.21	0.000588989	0.0114288
1057.53	0.000622559	0.00321198
1059.87	-0.697357	-0.0217865
1062.21	-0.00103149	0.0114288
1064.53	-0.000637817	0.00323608
1066.87	-0.697998	-0.0218079
1069.21	1.52588e-05	0.0114014
1071.53	-0.000637817	0.00325653
1073.87	-0.697937	-0.0218079
1076.21	0.000552368	0.0113983
1078.53	-0.000308228	0.0032666
1080.87	-0.698364	-0.0218201
1083.21	0.00038147	0.0113892
1085.53	-0.000656128	0.00329559
1087.87	-0.698029	-0.0218231
1090.21	0.000604248	0.011377
1092.53	-0.00062561	0.00331512
1094.87	-0.698547	-0.0218353
1097.21	0.000634766	0.011377
1099.53	0.000152588	0.00332916
1101.87	-0.698425	-0.0218201
1104.21	0.000454712	0.0113586
1106.53	-0.000558472	0.00334229
1108.87	-0.699005	-0.0218414
1111.21	-0.000384521	0.0113678
1113.53	-0.000537109	0.00336548
1115.87	-0.697601	-0.0218567
1118.21	-0.00045166	0.0113434
1120.53	-0.000265503	0.00338257
1122.87	-0.698944	-0.0218536
1125.21	-0.00100403	0.0113373
1127.53	-0.000653076	0.00340576
1129.87	-0.697571	-0.0218689
1132.21	0.000360107	0.011322
1134.53	-0.000610352	0.00342224
1136.87	-0.698944	-0.0218658
1139.21	-0.000912476	0.0113312
1141.53	0.00106506	0.00343384
1143.87	-0.697449	-0.021875
1146.21	0.000494385	0.0113068
1148.53	0.000296021	0.00345123
1150.87	-0.698669	-0.0218658
1153.21	-0.000405884	0.011319
1155.53	-0.000570679	0.00348022
1157.87	-0.697449	-0.0218964
1160.21	-0.000946045	0.0112976
1162.53	0.000115967	0.00349243
1164.87	-0.698425	-0.0218994
1167.21	0.000592041	0.0112885
1169.53	-0.000604248	0.00350861
1171.87	-0.69809	-0.0218842
1174.21	0.000628662	0.0112762
1176.53	-0.000753784	0.00352905
1178.87	-0.697205	-0.0219055
1181.21	-0.000921631	0.0112701
1183.53	-0.000598145	0.00354919
1185.87	-0.697632	-0.0218994
1188.21	0.000598145	0.0112579
1190.53	0.0009765625	0.00355591
1192.87	-0.697418	-0.0219177
1195.21	-0.000811768	0.011264
1197.53	-0.000631714	0.00358246
1199.87	-0.698975	-0.0219055
1202.21	0.000421143	0.0112335
1204.53	8.8501e-05	0.00358734
1206.87	-0.697418	-0.0219238
1209.21	-0.000253296	0.0112457
1211.53	-0.000436401	0.00361359
1213.87	-0.697845	-0.0219147
1216.21	0.00055542	0.0112213
1218.53	0.000802612	0.00362305
1220.87	-0.698059	-0.0219269
1223.21	-0.00043335	0.0112335
1225.53	0.000952148	0.00363739
1227.87	-0.698944	-0.0219299
1230.21	-0.000714111	0.011203
1232.53	-0.000576782	0.00366425
1234.87	-0.698547	-0.0219269
1237.21	-0.000689697	0.0112
1239.53	-0.000650024	0.00367554
1241.87	-0.697479	-0.0219574
1244.21	0.000619507	0.0112
1246.53	-0.000457764	0.0036972
1248.87	-0.698242	-0.0219574
1251.21	-0.000717163	0.0111877
1253.53	-0.000180054	0.00371155
1255.87	-0.697479	-0.0219635
1258.21	-0.000918579	0.0111755
1260.53	0.000942993	0.00371735
1262.87	-0.698395	-0.0219696
1265.21	0.000543213	0.0111572
1267.53	0.000408936	0.00372833
1269.87	-0.697205	-0.0219727
1272.21	-0.000927734	0.0111603
1274.53	0.000436401	0.00374298
1276.87	-0.697449	-0.0219757
1279.21	0.000549316	0.0111511
1281.53	0.000930786	0.00375732
1283.87	-0.697418	-0.0219727
1286.21	-0.000714111	0.011145
1288.53	0.000405884	0.00377838
1290.87	-0.698822	-0.0219635
1293.21	-0.000784302	0.0111481
1295.53	-0.00039978	0.00379547
1297.87	-0.699036	-0.0219727
1300.21	-0.000817871	0.0111359
1302.53	0.000476074	0.00381104
1304.87	-0.698151	-0.0219879
1307.21	0.000366211	0.0111237
1309.53	-0.000643921	0.00383148
1311.87	-0.69751	-0.0220001
1314.21	0.000390625	0.0111267
1316.53	-0.000637817	0.00384735
1318.87	-0.697296	-0.0219971
1321.21	0.000213623	0.0111115
1323.53	0.00017395	0.00385834
1325.87	-0.697266	-0.0220062
1328.21	-0.000375366	0.0111053
1330.53	0.000415039	0.00387085
1332.87	-0.699097	-0.021991
1335.21	-0.000765991	0.011084
1337.53	0.0009552	0.00387817
1339.87	-0.6987	-0.0219849
1342.21	5.79834e-05	0.0110687
1344.53	-0.000616455	0.00390106
1346.87	-0.697296	-0.0219971
1349.21	-0.000769043	0.0110779
1351.53	-4.88281e-05	0.00391113
1353.87	-0.697449	-0.0220093
1356.21	-6.71387e-05	0.0110565
1358.53	-0.000537109	0.00392944
1360.87	-0.697784	-0.0220093
1363.21	0.000158691	0.0110535
1365.53	0.000146484	0.00394257
1367.87	-0.698608	-0.0220123
1370.21	-0.000939941	0.0110504
1372.53	-7.32422e-05	0.0039566
1374.87	-0.698395	-0.0220184
1377.21	-0.000723267	0.0110382
1379.53	0.000357056	0.0039621
1381.87	-0.697327	-0.0220184
1384.21	-0.000350952	0.0110199
1386.53	-0.000646973	0.003984375
1388.87	-0.698029	-0.0220215
1391.21	-0.000518799	0.0110352
1393.53	0.000350952	0.00399475
1395.87	-0.697479	-0.0220276
1398.21	0.000762939	0.0110168
1400.53	0.000473022	0.00399933
1402.87	-0.698669	-0.0220093
1405.21	0.000375366	0.0109985
1407.53	-0.000616455	0.00402222
1409.87	-0.697968	-0.0220337
1412.21	-0.000857544	0.0110046
1414.53	0.000509644	0.00402924
1416.87	-0.697601	-0.0220306
1419.21	0.0006073	0.0109894
1421.53	0.000662231	0.00403961
1423.87	-0.697876	-0.0220367
1426.21	-0.000701904	0.0109894
1428.53	0.000637817	0.00405273
1430.87	-0.697754	-0.0220245
1433.21	-0.000344849	0.0109863
1435.53	0.00100098	0.00406433
1437.87	-0.69812	-0.0220306
1440.21	0.000698853	0.010965
1442.53	-0.000527954	0.00408447
1444.87	-0.698151	-0.0220337
1447.21	-0.0010376	0.0109558
1449.53	-0.00038147	0.00408569
1451.87	-0.699005	-0.0220215
1454.21	-0.000384521	0.0109619
1456.53	-0.000735474	0.00410583
1458.87	-0.697449	-0.0220398
1461.21	0.000152588	0.0109528
1463.53	-0.000750732	0.00411835
1465.87	-0.698975	-0.0220123
1468.21	0.000692749	0.0109283
1470.53	-0.000415039	0.00413086
1472.87	-0.697418	-0.0220367
1475.21	0.000579834	0.0109253
1477.53	-0.000720215	0.00413513
1479.87	-0.698364	-0.0220154
1482.21	0.000628662	0.010907
1484.53	-0.000146484	0.00414551
1486.87	-0.697296	-0.0220367
1489.21	-0.000280762	0.0109161
1491.53	0.000836182	0.00415161
1493.87	-0.698486	-0.0220337
1496.21	-0.000567627	0.0108948
1498.53	9.15527e-05	0.00416626
1500.87	-0.697723	-0.0220367
1503.21	-0.000708008	0.0108887
1505.53	-0.000561523	0.00418365
1507.87	-0.698303	-0.0220123
1510.21	-0.000912476	0.0108887
1512.53	0.000991821	0.00418884
1514.87	-0.698944	-0.0220337
1517.21	-0.000967407	0.0108856
1519.53	-0.000668335	0.00421082
1521.87	-0.698303	-0.0220367
1524.21	0.000643921	0.0108734
1526.53	0.000973511	0.00420807
1528.87	-0.697479	-0.0220459
1531.21	-0.000656128	0.0108582
1533.53	-0.000418091	0.00422821
1535.87	-0.699066	-0.0220306
1538.21	-0.000259399	0.0108643
1540.53	-0.000170898	0.00424347
1542.87	-0.697937	-0.0220367
1545.21	4.27246e-05	0.0108429
1547.53	0.00088501	0.00424316
1549.87	-0.697968	-0.0220459
1552.21	-0.00100098	0.0108398
1554.53	-2.13623e-05	0.00426666
1556.87	-0.69751	-0.0220428
1559.21	0.000289917	0.0108246
1561.53	0.000387573	0.00427032
1563.87	-0.698761	-0.0220215
1566.21	0.000396729	0.0108154
1568.53	0.000790405	0.00427185
1570.87	-0.698578	-0.0220245
1573.21	-0.000439453	0.0108276
1575.53	0.000485229	0.0042923
1577.87	-0.697388	-0.0220398
1580.21	0.000613403	0.0108002
1582.53	0.000582886	0.0042984
1584.87	-0.698273	-0.0220215
1587.21	0.000485229	0.0107941
1589.53	-2.44141e-05	0.0043045
1591.83	0.00101624	0.00155334