File: Edgar/20230619/20230619/electrodeposition_WO3_thin_films_onto_ITO_A/wo3_film_continuous_electrodeposition_A/OCP_3
Time (s)	WE(1).Potential (V)
422.973	-0.518494
423.973	-0.496368
424.973	-0.480469
425.973	-0.467712
426.973	-0.456879
427.973	-0.447357
428.973	-0.438843
429.973	-0.431061
430.973	-0.423889
431.973	-0.417175
432.973	-0.410919
433.973	-0.404968
434.973	-0.399292
435.973	-0.39389
436.973	-0.388702
437.973	-0.383667
438.973	-0.378784
439.973	-0.374023
440.973	-0.369354
441.973	-0.364777
442.973	-0.360229
443.973	-0.355774
444.973	-0.351318
445.973	-0.346924
446.973	-0.342529
447.973	-0.338165
448.973	-0.333801
449.973	-0.329407
450.973	-0.324982
451.973	-0.320587
452.973	-0.316132
453.973	-0.311676
454.973	-0.30719
455.973	-0.302673
456.973	-0.298096
457.973	-0.293518
458.973	-0.288879
459.973	-0.284241
460.973	-0.279602
461.973	-0.274933
462.973	-0.270264
463.973	-0.265564
464.973	-0.260925
465.973	-0.256317
466.973	-0.251709
467.973	-0.247162
468.973	-0.242676
469.973	-0.238251
470.973	-0.233917
471.973	-0.229675
472.973	-0.225525
473.973	-0.221436
474.973	-0.217499
475.973	-0.213654
476.973	-0.20993
477.973	-0.206329
478.973	-0.20282
479.973	-0.199432
480.973	-0.196136
481.973	-0.192993
482.973	-0.189911
483.973	-0.186951
484.973	-0.184082
485.973	-0.181305
486.973	-0.178619
487.973	-0.176025
488.973	-0.173523
489.973	-0.171082
490.973	-0.168701
491.973	-0.166412
492.973	-0.164185
493.973	-0.162018
494.973	-0.159882
495.973	-0.157837
496.973	-0.155853
497.973	-0.15387
498.973	-0.151947
499.973	-0.150085
500.973	-0.148224
501.973	-0.146423
502.973	-0.144653
503.973	-0.142914
504.973	-0.141205
505.973	-0.139496
506.973	-0.137817
507.973	-0.136169
508.973	-0.134521
509.973	-0.132904
510.973	-0.131317
511.973	-0.12973
512.973	-0.128143
513.973	-0.126587
514.973	-0.125
515.973	-0.123474
516.973	-0.121948
517.973	-0.120392
518.973	-0.118866
519.973	-0.11731
520.973	-0.115753
521.973	-0.114227
522.973	-0.112671
523.973	-0.111115
524.973	-0.109589
525.973	-0.108032
526.973	-0.106445
527.973	-0.104889
528.973	-0.103302
529.973	-0.101715
530.973	-0.100128
531.973	-0.0985413
532.973	-0.0969543
533.973	-0.0953064
534.973	-0.09375
535.973	-0.0921326
536.973	-0.0904846
537.973	-0.0888367
538.973	-0.0871582
539.973	-0.0855103
540.973	-0.0838318
541.973	-0.0821533
542.973	-0.0804443
543.973	-0.0787354
544.973	-0.0770264
545.973	-0.0753174
546.973	-0.0736084
547.973	-0.0718689
548.973	-0.0701599
549.973	-0.0684204
550.973	-0.0666809
551.973	-0.0649414
552.973	-0.0631714
553.973	-0.0614014
554.973	-0.0596313
555.973	-0.0578308
556.973	-0.0560608
557.973	-0.0542603
558.973	-0.0524597
559.973	-0.0506592
560.973	-0.0488281
561.973	-0.0469879
562.973	-0.0451355
563.973	-0.0432587
564.973	-0.0413635
565.973	-0.0394958
566.973	-0.0375854
567.973	-0.0356415
568.973	-0.03367
569.973	-0.0316772
570.973	-0.0296509
571.973	-0.0276062
572.973	-0.0255707
573.973	-0.023465
574.973	-0.0213623
575.973	-0.0192261
576.973	-0.0170532
577.973	-0.0148773
578.973	-0.0126221
579.973	-0.0103455
580.973	-0.00802917
581.973	-0.00566711
582.973	-0.00323181
583.973	-0.000787354
584.973	0.00171204
585.973	0.0042511
586.973	0.00683289
587.973	0.00947266
588.973	0.0121613
589.973	0.0149231
590.973	0.0177338
591.973	0.0205933
592.973	0.0235138
593.973	0.0265106
594.973	0.0295593
595.973	0.0326752
596.973	0.0358337
597.973	0.0390747
598.973	0.0423645
599.973	0.0457397
600.973	0.0491791
601.973	0.0527039