File: Edgar/20240508/20240508/electrodeposition_pulsed_potential_20240508_A/OCP_1
Time (s)	WE(1).Potential (V)
3.23376	0.523376
4.23376	0.523376
5.23376	0.523682
6.23376	0.523682
7.23376	0.523987
8.23376	0.523987
9.23376	0.524292
10.2338	0.524292
11.2338	0.524597
12.2338	0.524902
13.2338	0.524902
14.2338	0.525208
15.2338	0.525208
16.2338	0.525513
17.2338	0.525513
18.2338	0.525818
19.2338	0.525818
20.2338	0.526123
21.2338	0.526123
22.2338	0.526428
23.2338	0.526428
24.2338	0.526733
25.2338	0.526733
26.2338	0.526733
27.2338	0.527039
28.2338	0.527344
29.2338	0.527344
30.2338	0.527344
31.2338	0.527649
32.2338	0.527649
33.2338	0.527954
34.2338	0.527954
35.2338	0.528259
36.2338	0.528259
37.2338	0.528564
38.2338	0.528564
39.2338	0.52887
40.2338	0.52887
41.2338	0.529175
42.2338	0.529175
43.2338	0.52948
44.2338	0.52948
45.2338	0.52948
46.2338	0.529785
47.2338	0.529785
48.2338	0.53009
49.2338	0.53009
50.2338	0.530396
51.2338	0.530396
52.2338	0.530701
53.2338	0.530701
54.2338	0.530701
55.2338	0.531006
56.2338	0.531006
57.2338	0.531311
58.2338	0.531311
59.2338	0.531311
60.2338	0.531616
61.2338	0.531616
62.2338	0.531921
63.2338	0.531921
64.2338	0.532227
65.2338	0.532227
66.2338	0.532227
67.2338	0.532532
68.2338	0.532532
69.2338	0.532532
70.2338	0.532837
71.2338	0.532837
72.2338	0.533142
73.2338	0.533142
74.2338	0.533447
75.2338	0.533447
76.2338	0.533447
77.2338	0.533752
78.2338	0.533752
79.2338	0.533752
80.2338	0.534058
81.2338	0.534058
82.2338	0.534363
83.2338	0.534363
84.2338	0.534363
85.2338	0.534668
86.2338	0.534668
87.2338	0.534973
88.2338	0.534973
89.2338	0.534973
90.2338	0.535278
91.2338	0.535278
92.2338	0.535278
93.2338	0.535583
94.2338	0.535583
95.2338	0.535583
96.2338	0.535889
97.2338	0.535889
98.2338	0.536194
99.2338	0.536194
100.234	0.536194
101.234	0.536499
102.234	0.536499
103.234	0.536499
104.234	0.536804
105.234	0.536804
106.234	0.536804
107.234	0.537109
108.234	0.537109
109.234	0.537415
110.234	0.537415
111.234	0.537415
112.234	0.53772
113.234	0.53772
114.234	0.53772
115.234	0.538025
116.234	0.538025
117.234	0.538025
118.234	0.53833
119.234	0.53833
120.234	0.538635
121.234	0.538635
122.234	0.538635
123.234	0.538635
124.234	0.53894
125.234	0.53894
126.234	0.53894
127.234	0.539246
128.234	0.539246
129.234	0.539246
130.234	0.539551
131.234	0.539551
132.234	0.539551
133.234	0.539856
134.234	0.539856
135.234	0.539856
136.234	0.540161
137.234	0.540161
138.234	0.540161
139.234	0.540161
140.234	0.540466
141.234	0.540466
142.234	0.540466
143.234	0.540771
144.234	0.540771
145.234	0.540771
146.234	0.541077
147.234	0.541077
148.234	0.541077
149.234	0.541077
150.234	0.541382
151.234	0.541382
152.234	0.541382
153.234	0.541382
154.234	0.541687
155.234	0.541687
156.234	0.541687
157.234	0.541687
158.234	0.541687
159.234	0.541992
160.234	0.541992
161.234	0.541992
162.234	0.541992
163.234	0.541992
164.234	0.542297
165.234	0.542297
166.234	0.542297
167.234	0.542297
168.234	0.542297
169.234	0.542297
170.234	0.542297
171.234	0.542297
172.234	0.542603
173.234	0.542603
174.234	0.542603
175.234	0.542603
176.234	0.542603
177.234	0.542603
178.234	0.542603
179.234	0.542603
180.234	0.542603
181.234	0.542908
182.234	0.542908