File: Edgar/20240508/20240508/electrodeposition_pulsed_potential_20240508_A/OCP_3
Time (s)	WE(1).Potential (V)
5482.23	0.537109
5483.23	0.531311
5484.23	0.525818
5485.23	0.520935
5486.23	0.516357
5487.23	0.512085
5488.23	0.508423
5489.23	0.505066
5490.23	0.501709
5491.23	0.498718
5492.23	0.496155
5493.23	0.493805
5494.23	0.491638
5495.23	0.489655
5496.23	0.487854
5497.23	0.486206
5498.23	0.48468
5499.23	0.483307
5500.23	0.482056
5501.23	0.480957
5502.23	0.479919
5503.23	0.479004
5504.23	0.47818
5505.23	0.477478
5506.23	0.476807
5507.23	0.476227
5508.23	0.475647
5509.23	0.475159
5510.23	0.474731
5511.23	0.474365
5512.23	0.47406
5513.23	0.473785
5514.23	0.473572
5515.23	0.473389
5516.23	0.473175
5517.23	0.472961
5518.23	0.472809
5519.23	0.472687
5520.23	0.472595
5521.23	0.472504
5522.23	0.472473
5523.23	0.472412
5524.23	0.472412
5525.23	0.472412
5526.23	0.472412
5527.23	0.472443
5528.23	0.472534
5529.23	0.472595
5530.23	0.472595
5531.23	0.472656
5532.23	0.472687
5533.23	0.472748
5534.23	0.472778
5535.23	0.472809
5536.23	0.472809
5537.23	0.472809
5538.23	0.47287
5539.23	0.472961
5540.23	0.472992
5541.23	0.473053
5542.23	0.473145
5543.23	0.473175
5544.23	0.473236
5545.23	0.473297
5546.23	0.473389
5547.23	0.47345
5548.23	0.473541
5549.23	0.473572
5550.23	0.473633
5551.23	0.473633
5552.23	0.473663
5553.23	0.473694
5554.23	0.473724
5555.23	0.473755
5556.23	0.473785
5557.23	0.473785
5558.23	0.473846
5559.23	0.473877
5560.23	0.473907
5561.23	0.473938
5562.23	0.473999
5563.23	0.47406
5564.23	0.474121
5565.23	0.474152
5566.23	0.474213
5567.23	0.474213
5568.23	0.474243
5569.23	0.474274
5570.23	0.474304
5571.23	0.474365
5572.23	0.474365
5573.23	0.474396
5574.23	0.474457
5575.23	0.474487
5576.23	0.474518
5577.23	0.474518
5578.23	0.474518
5579.23	0.474548
5580.23	0.474548
5581.23	0.474579
5582.23	0.47464
5583.23	0.47464
5584.23	0.47467
5585.23	0.474701
5586.23	0.474731
5587.23	0.474762
5588.23	0.474792
5589.23	0.474792
5590.23	0.474823
5591.23	0.474854
5592.23	0.474854
5593.23	0.474884
5594.23	0.474915
5595.23	0.474915
5596.23	0.474976
5597.23	0.475006
5598.23	0.474976
5599.23	0.475006
5600.23	0.475067
5601.23	0.475067
5602.23	0.475098
5603.23	0.475128
5604.23	0.475159
5605.23	0.475189
5606.23	0.47522
5607.23	0.47522
5608.23	0.47522
5609.23	0.47522
5610.23	0.47525
5611.23	0.47525
5612.23	0.475281
5613.23	0.475281
5614.23	0.475311
5615.23	0.475311
5616.23	0.475372
5617.23	0.475403
5618.23	0.475403
5619.23	0.475403
5620.23	0.475433
5621.23	0.475464
5622.23	0.475464
5623.23	0.475464
5624.23	0.475494
5625.23	0.475525
5626.23	0.475525
5627.23	0.475555
5628.23	0.475586
5629.23	0.475586
5630.23	0.475647
5631.23	0.475647
5632.23	0.475677
5633.23	0.475708
5634.23	0.475739
5635.23	0.475769
5636.23	0.475769
5637.23	0.475769
5638.23	0.475769
5639.23	0.475769
5640.23	0.4758
5641.23	0.47583
5642.23	0.47583
5643.23	0.47583
5644.23	0.47583
5645.23	0.4758
5646.23	0.47583
5647.23	0.47583
5648.23	0.47583
5649.23	0.47583
5650.23	0.475861
5651.23	0.475861
5652.23	0.475891
5653.23	0.475891
5654.23	0.475861
5655.23	0.475861
5656.23	0.475861
5657.23	0.475861
5658.23	0.475922
5659.23	0.475952
5660.23	0.475983
5661.23	0.476013