File: Edgar/20240508/20240508/electrodeposition_pulsed_potential_20240508_A/pulses_0_to_1000.txt
Time (s)	WE(1).Potential (V)	WE(1).Current (A)
182.985	-0.699249	-0.0028479
187.345	0.54306	-6.16455e-06
191.665	0.542847	-5.82886e-06
196.005	-0.698395	-0.00277924
200.365	0.544098	-5.27954e-06
204.685	0.544312	-1.08643e-05
209.025	-0.698456	-0.00315247
213.385	0.543762	-3.90625e-06
217.705	0.543945	-1.04065e-05
222.045	-0.697449	-0.00332306
226.405	0.544098	-7.35474e-06
230.725	0.544495	-1.37329e-05
235.085	0.00211487	0.0038858
239.425	0.543365	-2.28882e-06
243.745	0.542999	-1.02539e-05
248.105	0.00158997	0.000770874
252.445	0.542877	-3.44849e-06
256.765	0.544464	-1.3916e-05
261.125	0.000997925	0.000195984
265.465	0.544495	-1.08643e-05
269.785	0.543091	-5.85937e-06
274.145	0.000964355	4.63867e-05
278.485	0.543274	-6.89697e-06
282.805	0.544006	-1.25427e-05
287.185	0.543243	0.000181061
291.505	0.543854	-8.3313e-06
295.825	0.542877	-5.12695e-06
300.205	0.544617	6.13098e-05
304.525	0.544647	-1.46484e-05
308.845	0.54425	-8.81958e-06
313.225	0.544281	3.47595e-05
317.545	0.542969	-3.17383e-06
321.865	0.544373	-1.37939e-05
326.245	0.542816	2.79541e-05
330.565	0.54422	-1.18713e-05
334.885	0.543213	-8.36182e-06
339.265	0.543274	1.69678e-05
343.585	0.544434	-1.46179e-05
347.905	0.542877	-5.18799e-06
352.285	0.542938	1.18103e-05
356.605	0.544373	-1.23596e-05
360.925	0.543854	-1.23596e-05
365.305	0.542969	1.03149e-05
369.625	0.543152	-7.50732e-06
373.945	0.543152	-3.72314e-06
378.325	0.542908	7.44629e-06
382.645	0.544006	-1.13525e-05
386.965	0.544464	-1.47705e-05
391.345	0.544189	-3.8147e-06
395.665	0.544342	-1.27258e-05
399.985	0.544464	-1.45569e-05
404.365	0.54303	2.62451e-06
408.685	0.544434	-1.6449e-05
413.005	0.543732	-1.15051e-05
417.385	0.544342	-8.54492e-06
421.705	0.544403	-1.2207e-05
426.025	0.543213	-8.60596e-06
430.405	0.543732	-3.44849e-06
434.725	0.543976	-1.23596e-05
439.045	0.542847	-4.94385e-06
443.425	0.543274	1.37329e-06
447.745	0.544495	-1.5686e-05
452.085	-0.698547	-0.0125092
456.445	0.544312	-8.81958e-06
460.765	0.542938	-5.52368e-06
465.105	-0.698761	-0.00899048
469.465	0.544434	-9.85718e-06
473.785	0.54306	-5.43213e-06
478.125	-0.697388	-0.00704926
482.485	0.544495	-1.22986e-05
486.805	0.543457	-8.54492e-06
491.145	-0.697571	-0.00590454
495.505	0.542847	-1.2207e-06
499.825	0.544495	-1.57776e-05
504.185	0.000576782	0.00930176
508.525	0.542877	-1.67847e-06
512.845	0.544098	-1.13525e-05
517.205	0.00146484	0.00602844
521.545	0.543549	-4.63867e-06
525.865	0.544525	-1.44348e-05
530.225	0.00203247	0.00366577
534.565	0.542847	-2.19727e-06
538.885	0.543304	-8.54492e-06
543.245	0.000714111	0.00193695
547.585	0.544159	-1.08643e-05
551.905	0.544067	-1.33057e-05
556.285	0.543274	0.000873718
560.605	0.54425	-1.26343e-05
564.925	0.54303	-4.97437e-06
569.305	0.544403	0.000226868
573.625	0.542969	-3.14331e-06
577.945	0.543518	-9.21631e-06
582.325	0.542999	0.000118103
586.645	0.544128	-1.19324e-05
590.965	0.542877	-3.9978e-06
595.345	0.542938	7.2998e-05
599.665	0.542694	-2.01416e-06
603.985	0.544373	-1.48926e-05
608.365	0.543457	4.45557e-05
612.685	0.543152	-3.63159e-06
617.005	0.543579	-8.39233e-06
621.385	0.542847	3.33862e-05
625.705	0.544403	-1.32446e-05
630.025	0.544342	-1.35498e-05
634.405	0.544464	1.41907e-05
638.725	0.543396	-8.42285e-06
643.045	0.542999	-4.91333e-06
647.425	0.543579	1.26648e-05
651.745	0.543152	-4.63867e-06
656.065	0.543488	-6.5918e-06
660.445	0.544464	3.90625e-06
664.765	0.544464	-1.27258e-05
669.085	0.543732	-1.05286e-05
673.465	0.542877	7.93457e-06
677.785	0.544434	-1.33972e-05
682.105	0.543945	-1.12305e-05
686.485	0.543182	6.80542e-06
690.805	0.542755	-2.7771e-06
695.125	0.544159	-1.14746e-05
699.505	0.543884	-3.08228e-06
703.825	0.544281	-1.01624e-05
708.145	0.54303	-6.40869e-06
712.525	0.543304	2.7771e-06
716.845	0.542877	-1.89209e-06
721.185	-0.696899	-0.0146515
725.545	0.544403	-6.86646e-06
729.865	0.544556	-1.36414e-05
734.205	-0.698425	-0.0109802
738.565	0.544434	-9.30786e-06
742.885	0.543945	-1.07422e-05
747.225	-0.697052	-0.00874634
751.585	0.542847	3.8147e-06
755.905	0.542877	-3.20435e-06
760.245	-0.697449	-0.00728851
764.605	0.543579	-2.74658e-06
768.925	0.543274	-6.13403e-06
773.285	0.00067749	0.00955811
777.625	0.543091	-1.95313e-06
781.945	0.544189	-1.18103e-05
786.305	0.00110168	0.00675751
790.645	0.543457	-4.24194e-06
794.965	0.543762	-8.78906e-06
799.325	0.000552368	0.00475067
803.666	0.542725	-1.09863e-06
807.986	0.544006	-9.64355e-06
812.346	0.000549316	0.00310303
816.686	0.542969	1.00708e-06
821.006	0.544464	-1.36719e-05
825.386	0.544525	0.00323608
829.706	0.542908	-3.57056e-06
834.026	0.54306	-3.63159e-06
838.406	0.544403	0.000405365
842.726	0.544006	-8.45337e-06
847.046	0.542786	-4.30298e-06
851.426	0.54303	0.00018985
855.746	0.543518	-4.57764e-06
860.066	0.543243	-5.98145e-06
864.446	0.543701	0.000106873
868.766	0.542938	-1.28174e-06
873.086	0.542816	-3.96729e-06
877.466	0.544525	6.10352e-05
881.786	0.544159	-7.17163e-06
886.106	0.544525	-1.35803e-05
890.486	0.544373	4.13818e-05
894.806	0.544403	-1.30615e-05
899.126	0.543945	-1.18713e-05
903.506	0.544342	2.85339e-05
907.826	0.542999	-9.46045e-07
912.146	0.544037	-1.25122e-05
916.526	0.544495	1.82495e-05
920.846	0.542969	-1.31226e-06
925.166	0.543457	-8.66699e-06
929.546	0.543121	2.06299e-05
933.866	0.544434	-1.22986e-05
938.186	0.544434	-1.297e-05
942.566	0.543457	1.33972e-05
946.886	0.543396	-6.74438e-06
951.206	0.543396	-7.56836e-06
955.586	0.544312	3.75366e-06
959.906	0.542816	-1.58691e-06
964.226	0.543701	-9.24683e-06
968.606	0.543549	6.92749e-06
972.926	0.544067	-9.73511e-06
977.246	0.542664	-2.83813e-06
981.626	0.544037	-2.74658e-07
985.946	0.543579	-7.47681e-06
990.286	-0.698273	-0.0160828
994.646	0.543732	3.08228e-06
998.966	0.54422	-1.19019e-05
1003.31	-0.698547	-0.0123505
1007.67	0.542816	6.46973e-06
1011.99	0.544159	-1.09558e-05
1016.33	-0.698639	-0.010022
1020.69	0.544464	-5.85937e-06
1025.01	0.542999	-3.05176e-06
1029.35	-0.697754	-0.0084198
1033.71	0.544464	-7.53784e-06
1038.03	0.542755	-1.80054e-06
1042.39	0.00101013	0.00946655
1046.73	0.544037	-4.24194e-06
1051.05	0.542847	-1.28174e-06
1055.41	0.00118103	0.00700012
1059.75	0.542816	1.98364e-06
1064.07	0.543701	-8.78906e-06
1068.43	0.000726318	0.00521942
1072.77	0.544373	-6.83594e-06
1077.09	0.542908	-3.96729e-06
1081.45	0.000616455	0.00373535
1085.79	0.543091	2.13623e-07
1090.11	0.543518	-6.04248e-06
1094.49	0.542908	0.00958862
1098.81	0.542908	1.86157e-06
1103.13	0.543213	-8.39233e-06
1107.51	0.54422	0.000698242
1111.83	0.543549	-4.82178e-06
1116.15	0.544189	-1.03149e-05
1120.53	0.543121	0.000278259
1124.85	0.543365	-4.02832e-06
1129.17	0.543396	-6.34766e-06
1133.55	0.54303	0.000153412
1137.87	0.542908	5.18799e-07
1142.19	0.543335	-5.0354e-06
1146.57	0.544098	9.18884e-05
1150.89	0.542908	1.25122e-06
1155.21	0.542969	-3.32642e-06
1159.59	0.543396	6.75049e-05
1163.91	0.542725	9.76562e-07
1168.23	0.544281	-1.07422e-05
1172.61	0.543518	4.7821e-05
1176.93	0.543427	-3.93677e-06
1181.25	0.544128	-1.01624e-05
1185.63	0.543457	3.72925e-05
1189.95	0.544159	-1.13525e-05
1194.27	0.544434	-1.09558e-05
1198.65	0.543579	2.43835e-05
1202.97	0.543701	-6.31714e-06
1207.29	0.544342	-1.52588e-05
1211.67	0.54425	1.35193e-05
1215.99	0.544006	-7.44629e-06
1220.31	0.543274	-4.48608e-06
1224.69	0.543518	1.37329e-05
1229.01	0.542877	-1.52588e-06
1233.33	0.544037	-1.33362e-05
1237.71	0.543457	1.19934e-05
1242.03	0.544006	-1.08643e-05
1246.35	0.543915	-1.00708e-05
1250.73	0.543121	1.4679e-05
1255.05	0.543121	-2.0752e-06
1259.39	-0.697693	-0.0172302
1263.75	0.542969	9.33838e-06
1268.07	0.543304	-6.13403e-06
1272.41	-0.698639	-0.0134338
1276.77	0.544342	3.35693e-07
1281.09	0.543945	-1.05896e-05
1285.43	-0.697449	-0.0110901
1289.79	0.54364	6.71387e-07
1294.11	0.544464	-1.37329e-05
1298.45	-0.697723	-0.00938416
1302.81	0.544434	-4.63867e-06
1307.13	0.54303	-3.35693e-06
1311.49	0.000274658	0.00927124
1315.83	0.543488	-1.43433e-06
1320.15	0.544006	-9.06372e-06
1324.51	0.000942993	0.00705475
1328.85	0.543213	1.06812e-06
1333.17	0.543457	-6.71387e-06
1337.53	0.000845337	0.00543091
1341.87	0.542877	4.48608e-06
1346.19	0.543152	-1.98364e-06
1350.55	0.000494385	0.00409119
1354.89	0.543671	-2.65503e-06
1359.21	0.543884	-7.96509e-06
1363.59	0.542908	0.0117065
1367.91	0.543579	-3.2959e-06
1372.23	0.542938	-2.65503e-06
1376.61	0.543671	0.00126923
1380.93	0.542847	1.12915e-06
1385.25	0.542847	-2.41089e-06
1389.63	0.544403	0.000383118
1393.95	0.543854	-2.19727e-06
1398.27	0.544128	-9.552e-06
1402.65	0.543335	0.00020462
1406.97	0.544434	-8.78906e-06
1411.29	0.543396	-5.06592e-06
1415.67	0.543549	0.000125275
1419.99	0.544556	-8.14819e-06
1424.31	0.544586	-1.33667e-05
1428.69	0.543243	8.61206e-05
1433.01	0.542877	1.67847e-06
1437.33	0.542969	-2.53296e-06
1441.71	0.542908	6.55518e-05
1446.03	0.54422	-9.12476e-06
1450.35	0.543884	-1.01929e-05
1454.73	0.54425	3.91846e-05
1459.05	0.54306	-9.15527e-07
1463.37	0.544464	-1.27869e-05
1467.75	0.544434	2.88696e-05
1472.07	0.54425	-1.02234e-05
1476.39	0.544159	-9.97925e-06
1480.77	0.543274	2.84119e-05
1482.95	0.544098	-1.06812e-05