File: Edgar/20240508/20240508/electrodeposition_pulsed_potential_20240508_A/pulses_1000_to_2000.txt
Time (s)	WE(1).Potential (V)	WE(1).Current (A)
1507.88	-0.697723	-0.0181946
1512.24	0.544281	4.30298e-06
1516.56	0.543427	-6.86646e-06
1520.9	-0.697021	-0.0142609
1525.26	0.542847	1.18103e-05
1529.58	0.544342	-1.23901e-05
1533.92	-0.697083	-0.011911
1538.28	0.54425	1.46484e-06
1542.6	0.544556	-1.27869e-05
1546.94	-0.697113	-0.0101624
1551.3	0.543335	5.37109e-06
1555.62	0.543549	-5.0354e-06
1559.98	0.00153198	0.00900269
1564.32	0.542816	8.17871e-06
1568.64	0.54425	-9.70459e-06
1573	0.00045166	0.00698669
1577.34	0.543335	5.31006e-06
1581.66	0.54422	-8.94165e-06
1586.02	0.000387573	0.00548462
1590.36	0.544159	-3.23486e-06
1594.68	0.543915	-1.01318e-05
1599.04	0.00134888	0.00423218
1603.38	0.543549	1.52588e-07
1607.7	0.542908	-2.71606e-06
1612.08	0.543152	0.0128296
1616.4	0.544006	-2.50244e-06
1620.72	0.544098	-1.02844e-05
1625.1	0.544281	0.0026236
1629.42	0.543396	-9.15527e-08
1633.74	0.543823	-6.56128e-06
1638.12	0.543915	0.000515747
1642.44	0.543732	-2.31934e-06
1646.76	0.544067	-7.56836e-06
1651.14	0.542847	0.000257782
1655.46	0.544342	-5.95093e-06
1659.78	0.543274	-1.86157e-06
1664.16	0.544159	0.000149689
1668.48	0.543579	-1.80054e-06
1672.8	0.544434	-1.45874e-05
1677.18	0.543762	0.000101105
1681.5	0.543976	-5.98145e-06
1685.82	0.542908	-1.00708e-06
1690.2	0.542969	7.95593e-05
1694.52	0.544556	-9.52148e-06
1698.84	0.543091	-2.2583e-06
1703.22	0.542816	6.03943e-05
1707.54	0.543152	-6.10352e-07
1711.86	0.544006	-1.28784e-05
1716.24	0.542969	4.56238e-05
1720.56	0.54425	-6.7749e-06
1724.88	0.542755	-2.80762e-06
1729.26	0.543793	3.0426e-05
1733.58	0.544434	-9.18579e-06
1737.9	0.543488	-5.95093e-06
1742.28	0.542755	3.11584e-05
1746.6	0.54361	-3.63159e-06
1750.92	0.542999	-3.78418e-06
1755.3	0.543915	1.83105e-05
1759.62	0.544495	-1.02234e-05
1763.94	0.542999	-3.35693e-07
1768.32	0.544159	1.25122e-05
1772.64	0.543945	-9.15527e-06
1776.98	-0.696655	-0.019101
1781.34	0.542908	1.70898e-05
1785.66	0.543793	-6.28662e-06
1790	-0.698212	-0.0151215
1794.36	0.544128	7.90405e-06
1798.68	0.544281	-7.69043e-06
1803.02	-0.698334	-0.0127716
1807.38	0.543671	7.72095e-06
1811.7	0.542999	-8.54492e-07
1816.04	-0.697357	-0.0110077
1820.4	0.542877	9.82666e-06
1824.72	0.543121	-1.25122e-06
1829.08	0.000518799	0.00870667
1833.42	0.544006	2.10571e-06
1837.74	0.543732	-5.95093e-06
1842.1	0.00187378	0.0068689
1846.44	0.544006	2.74658e-06
1850.76	0.542908	-2.44141e-06
1855.12	0.000952148	0.00550598
1859.46	0.543823	2.62451e-06
1863.78	0.54306	-1.49536e-06
1868.14	0.00205383	0.00434662
1872.48	0.54364	1.15967e-06
1876.8	0.542847	-1.83105e-06
1881.18	0.542694	0.0139008
1885.5	0.543793	-8.23975e-07
1889.82	0.544159	-1.00098e-05
1894.2	0.542603	0.00808716
1898.52	0.543854	-6.10352e-08
1902.84	0.543396	-5.43213e-06
1907.22	0.544159	0.000763245
1911.54	0.544037	-5.98145e-06
1915.86	0.54303	-2.28882e-06
1920.24	0.542969	0.000339722
1924.56	0.542999	3.08228e-06
1928.88	0.542847	-1.43433e-06
1933.26	0.544098	0.000192932
1937.58	0.543121	1.2207e-07
1941.9	0.543427	-5.40161e-06
1946.28	0.543182	0.000129974
1950.6	0.54425	-5.92041e-06
1954.92	0.543518	-5.64575e-06
1959.3	0.544006	8.73108e-05
1963.62	0.542908	3.63159e-06
1967.94	0.543793	-8.39233e-06
1972.32	0.543182	6.98853e-05
1976.64	0.542938	2.10571e-06
1980.96	0.54364	-6.53076e-06
1985.34	0.543549	5.29785e-05
1989.66	0.543243	-1.49536e-06
1993.98	0.544373	-1.2146e-05
1998.36	0.543457	3.97339e-05
2002.68	0.54425	-1.06812e-05
2007	0.544403	-1.2207e-05
2011.38	0.543732	3.15857e-05
2015.7	0.542694	1.5564e-06
2020.02	0.544373	-1.41602e-05
2024.4	0.544067	2.30713e-05
2028.72	0.543182	-1.28174e-06
2033.04	0.542969	-5.24902e-06
2037.42	0.544159	1.73645e-05
2041.74	0.542816	6.71387e-07
2046.08	-0.697632	-0.0199799
2050.44	0.544434	7.99561e-06
2054.76	0.543579	-3.66211e-06
2059.1	-0.697479	-0.0159607
2063.46	0.54303	1.5686e-05
2067.78	0.542969	2.44141e-07
2072.12	-0.696899	-0.0135712
2076.48	0.543518	1.09863e-05
2080.8	0.544373	-9.73511e-06
2085.14	-0.69693	-0.0118164
2089.5	0.544525	1.19019e-06
2093.82	0.543762	-6.80542e-06
2098.18	0.000875854	0.00834045
2102.52	0.544006	3.93677e-06
2106.84	0.542938	-2.19727e-06
2111.2	0.00119934	0.0066983
2115.54	0.54361	6.68335e-06
2119.86	0.543793	-8.20923e-06
2124.22	0.00139465	0.00542206
2128.56	0.544128	-4.27246e-07
2132.88	0.543152	-4.73022e-06
2137.24	0.00189819	0.00436218
2141.58	0.544403	-2.47192e-06
2145.9	0.543121	-1.67847e-06
2150.28	0.542297	0.0146423
2154.6	0.544495	-4.11987e-06
2158.92	0.543213	-2.0752e-06
2163.3	0.543213	0.00995483
2167.62	0.543945	-9.15527e-07
2171.94	0.543579	-6.2561e-06
2176.32	0.543427	0.00124786
2180.64	0.542908	5.46265e-06
2184.96	0.544189	-8.14819e-06
2189.34	0.544037	0.000434326
2193.66	0.542938	1.58691e-06
2197.98	0.543427	-3.93677e-06
2202.36	0.543213	0.000240448
2206.68	0.544342	-4.60815e-06
2211	0.543549	-6.56128e-06
2215.38	0.542877	0.000159149
2219.7	0.542908	4.79126e-06
2224.02	0.54425	-1.02844e-05
2228.4	0.543243	0.000109589
2232.72	0.544495	-6.5918e-06
2237.04	0.543243	-2.89917e-06
2241.42	0.543701	7.93457e-05
2245.74	0.542816	2.22778e-06
2250.06	0.544373	-1.29089e-05
2254.44	0.542847	6.19507e-05
2258.76	0.542847	2.47192e-06
2263.08	0.542877	-1.12915e-06
2267.46	0.544037	4.19312e-05
2271.78	0.543304	-2.62451e-06
2276.1	0.544525	-1.2085e-05
2280.48	0.543762	3.77197e-05
2284.8	0.544342	-7.69043e-06
2289.12	0.54425	-9.49097e-06
2293.5	0.543121	3.16772e-05
2297.82	0.542847	1.15967e-06
2302.14	0.544342	-1.09863e-05
2306.52	0.542847	2.77405e-05
2310.84	0.544403	-6.13403e-06
2315.18	-0.696564	-0.0207703
2319.54	0.544128	1.75476e-05
2323.86	0.544189	-7.2937e-06
2328.2	-0.698029	-0.0167694
2332.56	0.542908	2.00806e-05
2336.88	0.542816	1.40381e-06
2341.22	-0.698303	-0.0143616
2345.58	0.544373	6.53076e-06
2349.9	0.54303	-6.71387e-07
2354.24	-0.697388	-0.0126038
2358.6	0.543182	9.94873e-06
2362.92	0.54364	-6.83594e-06
2367.28	0.000274658	0.00791931
2371.62	0.544312	3.63159e-06
2375.94	0.544189	-8.36182e-06
2380.3	0.00183716	0.00644287
2384.64	0.543152	9.30786e-06
2388.96	0.542877	1.2207e-07
2393.32	0.000674438	0.00528748
2397.66	0.543213	5.5542e-06
2401.98	0.544067	-9.27734e-06
2406.34	0.00065918	0.00430206
2410.68	0.543854	5.5542e-06
2415	0.54303	-1.00708e-06
2419.38	0.543121	0.0151703
2423.7	0.542755	9.33838e-06
2428.02	0.544434	-9.42993e-06
2432.4	0.542328	0.0111664
2436.72	0.54306	7.2937e-06
2441.04	0.543488	-4.45557e-06
2445.42	0.54303	0.00458832
2449.74	0.542877	5.12695e-06
2454.06	0.542938	-9.15527e-08
2458.44	0.544403	0.000596313
2462.76	0.544098	-2.53296e-06
2467.08	0.544373	-1.11084e-05
2471.46	0.542999	0.000307617
2475.78	0.543976	-2.83813e-06
2480.1	0.543091	3.05176e-08
2484.48	0.543579	0.000186188
2488.8	0.544128	-7.93457e-07
2493.12	0.543945	-8.23975e-06
2497.5	0.543091	0.000130737
2501.82	0.544403	-7.1106e-06
2506.14	0.543243	-2.16675e-06
2510.52	0.542999	9.45129e-05
2514.84	0.542786	3.2959e-06
2519.16	0.544373	-1.10168e-05
2523.54	0.543335	7.08008e-05
2527.86	0.544403	-5.52368e-06
2532.18	0.544495	-1.15662e-05
2536.56	0.543945	5.16968e-05
2540.88	0.54425	-6.68335e-06
2545.2	0.543121	-1.46484e-06
2549.58	0.544342	3.54614e-05
2553.9	0.544556	-7.87354e-06
2558.22	0.544464	-1.04675e-05
2562.6	0.542877	3.80859e-05
2566.92	0.543732	-1.37329e-06
2571.24	0.544128	-1.01013e-05
2575.62	0.544037	2.27966e-05
2579.94	0.544403	-9.97925e-06
2584.28	-0.696259	-0.0214417
2588.64	0.542908	2.63672e-05
2592.96	0.544403	-8.91113e-06
2597.3	-0.697021	-0.0175903
2601.66	0.544006	1.54419e-05
2605.98	0.543182	-1.40381e-06
2610.32	-0.698181	-0.0151337
2614.68	0.543427	1.69067e-05
2619	0.544403	-8.57544e-06
2623.34	-0.698425	-0.0133575
2627.7	0.543915	9.91821e-06
2632.02	0.542938	7.32422e-07
2636.38	0.00184021	0.00747894
2640.72	0.543518	1.12305e-05
2645.04	0.543274	-1.0376e-06
2649.4	0.00202942	0.00614471
2653.74	0.54303	1.26648e-05
2658.06	0.543884	-5.27954e-06
2662.42	0.000543213	0.00507874
2666.76	0.542847	1.17798e-05
2671.08	0.544128	-7.99561e-06
2675.44	0.0010376	0.00417511
2679.78	0.543152	8.75854e-06
2684.1	0.543671	-5.7373e-06
2688.48	0.542511	0.0155701
2692.8	0.543335	5.27954e-06
2697.12	0.544464	-1.09558e-05
2701.5	0.542725	0.0119934
2705.82	0.542999	7.35474e-06
2710.14	0.544403	-1.15662e-05
2714.52	0.544006	0.00803528
2718.84	0.544434	-1.12915e-06
2723.16	0.544556	-1.08032e-05
2727.54	0.542969	0.000980835
2731.86	0.544159	-2.01416e-06
2736.18	0.543304	-3.20435e-06
2740.56	0.544128	0.000390198
2744.88	0.542969	3.78418e-06
2749.2	0.543152	-3.35693e-06
2753.58	0.544617	0.000222687
2757.9	0.54303	7.32422e-06
2762.22	0.543182	-3.2959e-06
2766.6	0.544098	0.000146423
2770.92	0.543976	-4.08936e-06
2775.24	0.543182	-1.15967e-06
2779.62	0.542847	0.000113129
2783.94	0.544067	-2.92969e-06
2788.26	0.544128	-7.50732e-06
2792.64	0.542847	8.46252e-05
2796.96	0.544403	-5.09644e-06
2801.28	0.542908	-1.25122e-06
2805.66	0.544281	5.61523e-05
2807.84	0.544403	-1.23291e-05