File: Edgar/20240508/20240508/electrodeposition_pulsed_potential_20240508_A/pulses_3000_to_4000.txt
Time (s)	WE(1).Potential (V)	WE(1).Current (A)
4156.48	-0.697327	-0.0233124
4160.84	0.544067	4.6814e-05
4165.16	0.543091	7.32422e-07
4169.5	-0.696289	-0.0205688
4173.86	0.544342	3.54614e-05
4178.18	0.543365	4.88281e-07
4182.52	-0.697144	-0.0184448
4186.88	0.542816	3.52173e-05
4191.2	0.543793	-4.54712e-06
4195.54	-0.698212	-0.0167572
4199.9	0.544464	2.24609e-05
4204.22	0.542847	3.05176e-06
4208.58	0.00113525	0.00478394
4212.92	0.544373	1.75476e-05
4217.24	0.54303	1.58691e-06
4221.6	0.00119324	0.00393616
4225.94	0.54364	1.97449e-05
4230.26	0.544464	-7.78198e-06
4234.62	0.00148926	0.00328613
4238.96	0.544373	9.765625E-06
4243.28	0.542999	2.38037e-06
4247.64	0.00072937	0.00277222
4251.98	0.543854	1.23596e-05
4256.3	0.542847	3.2959e-06
4260.68	0.543304	0.0159882
4265	0.543915	7.84302e-06
4269.32	0.543945	-4.85229e-06
4273.7	0.542786	0.0137299
4278.02	0.543976	5.64575e-06
4282.34	0.543213	-2.38037e-06
4286.72	0.542236	0.0117004
4291.04	0.543365	8.48389e-06
4295.36	0.544281	-6.95801e-06
4299.74	0.543701	0.00960693
4304.06	0.54303	9.79614e-06
4308.38	0.542938	1.09863e-06
4312.76	0.54422	0.00693329
4317.08	0.543671	2.59399e-06
4321.4	0.54364	-4.88281e-06
4325.78	0.544189	0.00171082
4330.1	0.54306	8.23975e-06
4334.42	0.54306	-4.27246e-07
4338.8	0.544312	0.000758362
4343.12	0.542877	8.08716e-06
4347.44	0.544464	-1.12e-05
4351.82	0.543152	0.000429932
4356.14	0.542877	7.96509e-06
4360.46	0.544128	-7.08008e-06
4364.84	0.54303	0.000273193
4369.16	0.544128	-1.37329e-06
4373.48	0.542725	1.40381e-06
4377.86	0.544464	0.000179077
4382.18	0.544403	-3.08228e-06
4386.5	0.544312	-8.78906e-06
4390.88	0.54361	0.000127136
4395.2	0.543335	2.80762e-06
4399.52	0.544403	-9.15527e-06
4403.9	0.542877	0.000100891
4408.22	0.544403	-4.91333e-06
4412.54	0.544281	-7.90405e-06
4416.92	0.544006	7.36084e-05
4421.24	0.544037	-1.92261e-06
4425.58	-0.696686	-0.0236115
4429.94	0.543732	5.62744e-05
4434.26	0.543915	-4.18091e-06
4438.6	-0.696411	-0.0209015
4442.96	0.543243	4.88281e-05
4447.28	0.544464	-7.1106e-06
4451.62	-0.697784	-0.018808
4455.98	0.544281	3.53699e-05
4460.3	0.544037	-3.26538e-06
4464.64	-0.697723	-0.0171692
4469	0.543396	3.35693e-05
4473.32	0.543152	8.8501e-07
4477.68	0.000500488	0.00445496
4482.02	0.543976	2.42004e-05
4486.34	0.544006	-4.5166e-06
4490.7	0.000558472	0.00366882
4495.04	0.54422	1.98059e-05
4499.36	0.54303	1.80054e-06
4503.72	0.00121765	0.00306152
4508.06	0.543304	1.78223e-05
4512.38	0.543762	-2.96021e-06
4516.74	0.000967407	0.00259705
4521.08	0.543457	1.59607e-05
4525.4	0.543274	-1.2207e-07
4529.78	0.543518	0.0160095
4534.1	0.543884	1.05896e-05
4538.42	0.54422	-5.95093e-06
4542.8	0.542847	0.0138428
4547.12	0.543488	1.11084e-05
4551.44	0.544495	-7.84302e-06
4555.82	0.542267	0.0119141
4560.14	0.544403	3.78418e-06
4564.46	0.543732	-2.0752e-06
4568.84	0.542725	0.00996094
4573.16	0.543976	4.21143e-06
4577.48	0.544128	-6.46973e-06
4581.86	0.542847	0.00759583
4586.18	0.543427	8.39233e-06
4590.5	0.543121	-1.0376e-06
4594.88	0.544128	0.00236908
4599.2	0.543945	2.74658e-06
4603.52	0.543182	-1.28174e-06
4607.9	0.544159	0.000975952
4612.22	0.543488	4.85229e-06
4616.54	0.544342	-8.60596e-06
4620.92	0.544128	0.000541382
4625.24	0.543121	7.99561e-06
4629.56	0.543243	8.8501e-07
4633.94	0.544098	0.000331329
4638.26	0.544281	-3.75366e-06
4642.58	0.54361	-6.31714e-06
4646.96	0.542908	0.000227661
4651.28	0.544373	-1.64795e-06
4655.6	0.543121	-2.38037e-06
4659.98	0.544373	0.000152679
4664.3	0.54425	-3.32642e-06
4668.62	0.544312	-8.14819e-06
4673	0.544434	0.000111877
4677.32	0.54425	-4.3335e-06
4681.64	0.542938	6.10352e-07
4686.02	0.544128	8.41675e-05
4690.34	0.543091	5.70679e-06
4694.68	-0.696198	-0.0237213
4699.04	0.544037	6.62842e-05
4703.36	0.544434	-5.18799e-06
4707.7	-0.696838	-0.021106
4712.06	0.542969	5.86243e-05
4716.38	0.54361	-1.5564e-06
4720.72	-0.696411	-0.0190979
4725.08	0.54422	4.00085e-05
4729.4	0.544403	-5.52368e-06
4733.74	-0.697571	-0.0174683
4738.1	0.543152	3.94287e-05
4742.42	0.54303	2.44141e-06
4746.78	0.000488281	0.00416351
4751.12	0.543396	2.93884e-05
4755.44	0.542847	3.90625e-06
4759.8	0.00137329	0.00340424
4764.14	0.542908	2.92664e-05
4768.46	0.542938	1.83105e-07
4772.82	0.00200195	0.00283691
4777.16	0.544464	1.48926e-05
4781.48	0.543549	-9.46045e-07
4785.84	0.000689697	0.00240784
4790.18	0.544037	1.44958e-05
4794.5	0.543427	-1.95313e-06
4798.88	0.54361	0.0159576
4803.2	0.54306	1.87683e-05
4807.52	0.543976	-5.37109e-06
4811.9	0.542389	0.0138977
4816.22	0.544434	7.96509e-06
4820.54	0.54425	-6.62231e-06
4824.92	0.543671	0.0120361
4829.24	0.543427	1.28174e-05
4833.56	0.542847	1.95313e-06
4837.94	0.542664	0.0102081
4842.26	0.542877	1.44348e-05
4846.58	0.543304	-2.74658e-06
4850.96	0.544098	0.00806885
4855.28	0.544434	2.2583e-06
4859.6	0.544464	-7.93457e-06
4863.98	0.542938	0.00335876
4868.3	0.544312	1.92261e-06
4872.62	0.544464	-9.06372e-06
4877	0.544037	0.00122742
4881.32	0.54303	9.61304e-06
4885.64	0.544403	-9.21631e-06
4890.02	0.543793	0.000674438
4894.34	0.544281	-3.35693e-07
4898.66	0.543762	-4.18091e-06
4903.04	0.542969	0.000416077
4907.36	0.544312	-1.34277e-06
4911.68	0.544495	-9.21631e-06
4916.06	0.542938	0.000276154
4920.38	0.543488	3.17383e-06
4924.7	0.544464	-9.73511e-06
4929.08	0.543915	0.000189362
4933.4	0.542908	3.96729e-06
4937.72	0.543396	-3.02124e-06
4942.1	0.54425	0.000135437
4946.42	0.543976	-2.34985e-06
4950.74	0.544434	-9.64355e-06
4955.12	0.544525	9.94873e-05
4959.44	0.542999	5.15747e-06
4963.78	-0.697723	-0.0238098
4968.14	0.543121	8.45337e-05
4972.46	0.543976	-1.67847e-06
4976.8	-0.696869	-0.0212738
4981.16	0.543335	6.62537e-05
4985.48	0.543182	1.58691e-06
4989.82	-0.697083	-0.0193115
4994.18	0.544373	4.66309e-05
4998.5	0.544403	-6.10352e-06
5002.84	-0.697876	-0.0177185
5007.2	0.543243	4.34265e-05
5011.52	0.543732	-4.88281e-07
5015.88	0.00194092	0.00389587
5020.22	0.544403	2.92664e-05
5024.54	0.542938	3.50952e-06
5028.9	0.00139771	0.00317291
5033.24	0.542908	3.10059e-05
5037.56	0.544342	-6.37817e-06
5041.92	0.000726318	0.00264954
5046.26	0.542908	2.77405e-05
5050.58	0.544281	-6.65283e-06
5054.94	0.000857544	0.00223083
5059.28	0.542908	2.37122e-05
5063.6	0.543304	-9.15527e-08
5067.98	0.543365	0.0158997
5072.3	0.542816	1.97449e-05
5076.62	0.542847	2.31934e-06
5081	0.543701	0.0138916
5085.32	0.54364	1.09558e-05
5089.64	0.544006	-6.40869e-06
5094.02	0.54245	0.0121368
5098.34	0.542999	1.52893e-05
5102.66	0.544373	-8.8501e-06
5107.04	0.543518	0.0103577
5111.36	0.543121	1.297e-05
5115.68	0.542877	1.92261e-06
5120.06	0.54306	0.00834961
5124.38	0.543945	6.19507e-06
5128.7	0.544312	-8.57544e-06
5133.08	0.542847	0.00443604
5137.4	0.543488	6.16455e-06
5141.72	0.543518	-3.66211e-06
5146.1	0.542877	0.00148529
5150.42	0.542908	1.08337e-05
5154.74	0.543976	-5.70679e-06
5159.12	0.544189	0.000805969
5163.44	0.543335	6.2561e-06
5167.76	0.54425	-8.30078e-06
5172.14	0.54425	0.000495605
5176.46	0.544342	-5.79834e-07
5180.78	0.544403	-7.59888e-06
5185.16	0.543549	0.000329376
5189.48	0.543121	5.98145e-06
5193.8	0.543732	-5.09644e-06
5198.18	0.543732	0.000224609
5202.5	0.54422	8.8501e-07
5206.82	0.544403	-8.23975e-06
5211.2	0.543396	0.000165741
5215.52	0.544037	-1.77002e-06
5219.84	0.544525	-9.49097e-06
5224.22	0.543213	0.000123962
5228.54	0.543182	5.43213e-06
5232.88	-0.697235	-0.0238678
5237.24	0.542908	9.84192e-05
5241.56	0.542999	5.21851e-06
5245.9	-0.697815	-0.0213806
5250.26	0.543243	7.724e-05
5254.58	0.544342	-4.73022e-06
5258.92	-0.696442	-0.0194763
5263.28	0.544525	5.40161e-05
5267.6	0.542908	4.3335e-06
5271.94	-0.697998	-0.017923
5276.3	0.543091	5.05676e-05
5280.62	0.544098	-3.54004e-06
5284.98	0.00188904	0.00367249
5289.32	0.544312	3.48816e-05
5293.64	0.543457	0
5298	0.00174561	0.00297943
5302.34	0.542938	3.44543e-05
5306.66	0.544403	-8.05664e-06
5311.02	0.00185547	0.00248016
5315.36	0.543091	3.09143e-05
5319.68	0.542877	2.71606e-06
5324.04	0.00201721	0.00209229
5328.38	0.543213	2.50549e-05
5332.7	0.544098	-4.45557e-06
5337.08	0.542358	0.0158417
5341.4	0.54361	1.77002e-05
5345.72	0.543884	-4.85229e-06
5350.1	0.542297	0.0139099
5354.42	0.542847	2.13928e-05
5358.74	0.543549	-1.37329e-06
5363.12	0.542542	0.012207
5367.44	0.543823	1.01318e-05
5371.76	0.543579	-5.12695e-06
5376.14	0.543976	0.0104828
5380.46	0.543365	1.22681e-05
5384.78	0.543274	7.01904e-07
5389.16	0.543732	0.00856628
5393.48	0.543854	7.14111e-06
5397.8	0.542786	2.31934e-06
5402.18	0.542755	0.00539825
5406.5	0.543549	8.23975e-06
5410.82	0.544159	-5.7373e-06
5415.2	0.543365	0.00173279
5419.52	0.542999	1.01013e-05
5423.84	0.542908	1.80054e-06
5428.22	0.54422	0.000941162
5432.54	0.543365	5.27954e-06
5436.86	0.544037	-6.68335e-06
5441.24	0.544403	0.000578918
5445.56	0.544128	6.71387e-07
5449.88	0.544098	-7.96509e-06
5454.26	0.543762	0.000385925
5456.44	0.54425	-9.00269e-06