File: Edgar/20240508/20240508/electrodeposition_pulsed_potential_20240508_A/pulses_2000_to_3000.txt
Time (s)	WE(1).Potential (V)	WE(1).Current (A)
2832.17	-0.697418	-0.0218262
2836.53	0.544098	2.29492e-05
2840.85	0.542816	2.2583e-06
2845.19	-0.696808	-0.0182129
2849.55	0.543488	1.88904e-05
2853.87	0.543854	-3.2959e-06
2858.21	-0.696686	-0.015744
2862.57	0.544373	1.12305e-05
2866.89	0.543457	-3.93677e-06
2871.23	-0.696625	-0.0139679
2875.59	0.543213	1.49841e-05
2879.91	0.542938	2.13623e-07
2884.27	0.000860596	0.00707001
2888.61	0.543152	1.29089e-05
2892.93	0.543335	-1.92261e-06
2897.29	0.000390625	0.00584717
2901.63	0.543304	1.04065e-05
2905.95	0.543182	3.05176e-08
2910.31	0.000506592	0.00485535
2914.65	0.544281	4.15039e-06
2918.97	0.543152	-2.86865e-06
2923.33	0.00137329	0.00399384
2927.67	0.54422	2.71606e-06
2931.99	0.543274	-3.57056e-06
2936.37	0.54364	0.015744
2940.69	0.543304	7.14111e-06
2945.01	0.544434	-1.00708e-05
2949.39	0.542603	0.0124725
2953.71	0.543152	7.08008e-06
2958.03	0.544159	-8.3313e-06
2962.41	0.54248	0.00915222
2966.73	0.544098	2.44141e-07
2971.05	0.543732	-5.85937e-06
2975.43	0.543304	0.00181335
2979.75	0.54425	-2.62451e-06
2984.07	0.544403	-8.08716e-06
2988.45	0.542908	0.000529785
2992.77	0.543427	2.65503e-06
2997.09	0.542847	1.95313e-06
3001.47	0.543488	0.000278534
3005.79	0.543427	-2.44141e-07
3010.11	0.543549	-5.58472e-06
3014.49	0.542877	0.000180176
3018.81	0.543213	1.86157e-06
3023.13	0.543732	-5.18799e-06
3027.51	0.543427	0.000121796
3031.83	0.544067	-4.69971e-06
3036.15	0.543121	-2.22778e-06
3040.53	0.544556	8.40759e-05
3044.85	0.544159	-3.9978e-06
3049.17	0.542969	-1.43433e-06
3053.55	0.544403	6.28357e-05
3057.87	0.543152	1.7395e-06
3062.19	0.54422	-1.01318e-05
3066.57	0.543732	5.06897e-05
3070.89	0.542938	3.9978e-06
3075.21	0.544464	-1.15051e-05
3079.59	0.543427	4.5166e-05
3083.91	0.543152	2.83813e-06
3088.23	0.543365	-4.42505e-06
3092.61	0.54361	3.43628e-05
3096.93	0.54306	1.67847e-06
3101.27	-0.696716	-0.0222473
3105.63	0.542755	3.16467e-05
3109.95	0.543579	-2.68555e-06
3114.29	-0.697845	-0.0187561
3118.65	0.543854	2.23389e-05
3122.97	0.543304	1.2207e-07
3127.31	-0.697601	-0.016333
3131.67	0.543274	2.13623e-05
3135.99	0.544495	-8.14819e-06
3140.33	-0.697052	-0.0145569
3144.69	0.544434	9.09424e-06
3149.01	0.543365	-1.37329e-06
3153.37	0.000509644	0.00665955
3157.71	0.543823	1.19934e-05
3162.03	0.54303	-3.05176e-07
3166.39	0.00151978	0.00552246
3170.73	0.543762	1.04065e-05
3175.05	0.543396	-3.32642e-06
3179.41	0.00202942	0.00459747
3183.75	0.542969	1.15967e-05
3188.07	0.543121	-1.34277e-06
3192.43	0.000570679	0.0038092
3196.77	0.542969	1.22681e-05
3201.09	0.544159	-6.073e-06
3205.47	0.543427	0.0158905
3209.79	0.54306	1.06201e-05
3214.11	0.542847	2.16675e-06
3218.49	0.54364	0.0128876
3222.81	0.54364	1.95313e-06
3227.13	0.544373	-7.35474e-06
3231.51	0.543701	0.00996704
3235.83	0.543457	6.92749e-06
3240.15	0.542969	3.05176e-07
3244.53	0.543518	0.00532837
3248.85	0.543152	5.98145e-06
3253.17	0.544067	-4.5166e-06
3257.55	0.54422	0.000780334
3261.87	0.543274	4.36401e-06
3266.19	0.544312	-8.81958e-06
3270.57	0.543549	0.000364899
3274.89	0.542847	5.95093e-06
3279.21	0.544342	-1.05896e-05
3283.59	0.54303	0.000219604
3287.91	0.544434	-4.48608e-06
3292.23	0.543243	-1.86157e-06
3296.61	0.542999	0.000148285
3300.93	0.54425	-3.20435e-06
3305.25	0.542969	-1.12915e-06
3309.63	0.54364	0.000101257
3313.95	0.542877	5.58472e-06
3318.27	0.544403	-1.02234e-05
3322.65	0.543671	7.93457e-05
3326.97	0.544434	-5.95093e-06
3331.29	0.544342	-1.08032e-05
3335.67	0.543701	5.73425e-05
3339.99	0.542816	3.08228e-06
3344.31	0.542999	9.46045e-07
3348.69	0.542908	5.21851e-05
3353.01	0.543579	-1.00708e-06
3357.33	0.543304	-3.08228e-06
3361.71	0.544037	3.48511e-05
3366.03	0.54425	-4.91333e-06
3370.37	-0.697723	-0.0226257
3374.73	0.542908	3.48206e-05
3379.05	0.544006	-3.38745e-06
3383.39	-0.696442	-0.0193665
3387.75	0.543091	2.79846e-05
3392.07	0.542877	2.28882e-06
3396.41	-0.696686	-0.0170135
3400.77	0.542908	2.42615e-05
3405.09	0.544281	-7.50732e-06
3409.43	-0.697723	-0.0152344
3413.79	0.543518	1.81885e-05
3418.11	0.544434	-8.88062e-06
3422.47	0.00180664	0.00609406
3426.81	0.544159	1.01624e-05
3431.13	0.543976	-6.43921e-06
3435.49	0.000491333	0.0050708
3439.83	0.544098	8.78906e-06
3444.15	0.543732	-3.63159e-06
3448.51	0.00189209	0.00422516
3452.85	0.544037	8.30078e-06
3457.17	0.544159	-6.71387e-06
3461.53	0.000805664	0.00351471
3465.87	0.543488	9.85718e-06
3470.19	0.54425	-7.96509e-06
3474.57	0.543457	0.0159668
3478.89	0.543732	7.44629e-06
3483.21	0.543152	-7.32422e-07
3487.59	0.543213	0.0132172
3491.91	0.542969	1.11694e-05
3496.23	0.543396	-2.22778e-06
3500.61	0.543579	0.0106659
3504.93	0.543121	6.19507e-06
3509.25	0.542908	7.32422e-07
3513.63	0.544037	0.0076355
3517.95	0.544128	1.28174e-06
3522.27	0.544403	-8.94165e-06
3526.65	0.542938	0.00142853
3530.97	0.544098	-6.40869e-07
3535.29	0.544556	-8.5144e-06
3539.67	0.54306	0.000549927
3543.99	0.544312	-1.34277e-06
3548.31	0.54303	1.12915e-06
3552.69	0.542816	0.000301849
3557.01	0.542908	6.46973e-06
3561.33	0.543762	-4.60815e-06
3565.71	0.544067	0.000183258
3570.03	0.543549	1.0376e-06
3574.35	0.542786	7.93457e-07
3578.73	0.542816	0.00013736
3583.05	0.544312	-4.05884e-06
3587.37	0.543549	-5.52368e-06
3591.75	0.54422	9.021e-05
3596.07	0.544067	-1.7395e-06
3600.39	0.542969	-2.44141e-06
3604.77	0.544342	6.91528e-05
3609.09	0.542938	4.48608e-06
3613.41	0.544128	-9.46045e-06
3617.79	0.544403	5.2002e-05
3622.11	0.54425	-5.06592e-06
3626.43	0.544189	-8.69751e-06
3630.81	0.544464	4.01611e-05
3635.13	0.542816	3.96729e-06
3639.47	-0.697601	-0.0229675
3643.83	0.544281	3.18298e-05
3648.15	0.543732	-3.44849e-06
3652.49	-0.696716	-0.0198914
3656.85	0.543274	3.125E-05
3661.17	0.544464	-6.5918e-06
3665.51	-0.697998	-0.0175995
3669.87	0.543427	2.45361e-05
3674.19	0.543732	-1.31226e-06
3678.53	-0.696838	-0.0158539
3682.89	0.543274	1.85852e-05
3687.21	0.543396	-1.34277e-06
3691.57	0.000689697	0.00559082
3695.91	0.544189	1.40076e-05
3700.23	0.544281	-4.60815e-06
3704.59	0.00174866	0.00463776
3708.93	0.543488	1.12915e-05
3713.25	0.54306	4.88281e-07
3717.61	0.00155334	0.00387329
3721.95	0.543121	1.50757e-05
3726.27	0.543701	-4.42505e-06
3730.64	0.00119629	0.00322815
3734.98	0.54303	1.40076e-05
3739.3	0.542938	-1.83105e-06
3743.68	0.542236	0.0160095
3748	0.544128	5.31006e-06
3752.32	0.544098	-6.80542e-06
3756.7	0.543243	0.0134705
3761.02	0.543091	1.26343e-05
3765.34	0.543915	-5.15747e-06
3769.72	0.54248	0.0111542
3774.04	0.542877	1.04065e-05
3778.36	0.544403	-8.39233e-06
3782.74	0.543304	0.00860901
3787.06	0.544037	3.57056e-06
3791.38	0.543854	-4.91333e-06
3795.76	0.542908	0.00296326
3800.08	0.543427	2.56348e-06
3804.4	0.543793	-4.11987e-06
3808.78	0.544128	0.000830688
3813.1	0.54422	3.96729e-07
3817.42	0.54364	-4.60815e-06
3821.8	0.542908	0.000423706
3826.12	0.54306	5.64575e-06
3830.44	0.543732	-3.84521e-06
3834.82	0.542938	0.000256714
3839.14	0.542877	6.2561e-06
3843.46	0.542877	0
3847.84	0.544159	0.000163452
3852.16	0.544128	-2.68555e-06
3856.48	0.544312	-9.52148e-06
3860.86	0.544067	0.000118073
3865.18	0.542938	6.2561e-06
3869.5	0.544434	-1.08032e-05
3873.88	0.54425	8.58154e-05
3878.2	0.542999	4.36401e-06
3882.52	0.543243	-2.53296e-06
3886.9	0.543793	6.99158e-05
3891.22	0.542969	1.15967e-06
3895.54	0.544586	-1.19629e-05
3899.92	0.544403	4.92554e-05
3904.24	0.543274	1.52588e-06
3908.58	-0.697388	-0.0232361
3912.94	0.543365	4.62646e-05
3917.26	0.543274	1.19019e-06
3921.6	-0.696655	-0.0203125
3925.96	0.543365	3.78418e-05
3930.28	0.544098	-4.15039e-06
3934.62	-0.696655	-0.0181
3938.98	0.542755	3.41187e-05
3943.3	0.544037	-6.62231e-06
3947.64	-0.69812	-0.01640625
3952	0.544312	1.86768e-05
3956.32	0.544403	-6.13403e-06
3960.68	0.00203552	0.0051297
3965.02	0.542908	2.44141e-05
3969.34	0.543335	-3.66211e-07
3973.7	0.000949097	0.00424988
3978.04	0.542938	2.00806e-05
3982.36	0.542969	2.74658e-06
3986.72	0.00203552	0.00353912
3991.06	0.543518	1.27258e-05
3995.38	0.543976	-5.79834e-06
3999.74	0.0010437	0.00297455
4004.08	0.542877	1.6449e-05
4008.4	0.542908	1.09863e-06
4012.78	0.543518	0.0159912
4017.1	0.542938	1.34888e-05
4021.42	0.543427	-3.44849e-06
4025.8	0.543549	0.0136261
4030.12	0.544189	4.66919e-06
4034.44	0.544281	-9.21631e-06
4038.82	0.54361	0.0114777
4043.14	0.544434	7.93457e-07
4047.46	0.542999	-1.83105e-06
4051.84	0.542542	0.00924683
4056.16	0.543121	9.06372e-06
4060.48	0.544373	-8.39233e-06
4064.86	0.544128	0.00590607
4069.18	0.543213	6.68335e-06
4073.5	0.544373	-8.54492e-06
4077.88	0.54364	0.00124817
4082.2	0.543396	5.31006e-06
4086.52	0.544342	-7.35474e-06
4090.9	0.544373	0.000584717
4095.22	0.542816	9.8877e-06
4099.54	0.543732	-5.15747e-06
4103.92	0.543976	0.000338623
4108.24	0.543091	6.46973e-06
4112.56	0.544342	-9.552e-06
4116.94	0.543549	0.000216553
4121.26	0.543152	5.5542e-06
4125.58	0.544464	-1.05286e-05
4129.96	0.543976	0.000145844
4132.14	0.542755	1.0376e-06