File: Edgar/20230626/20230626/electrodeposition_prussian_blue/electrodeposition_sample_B/CP_data_2
Time (s)	WE(1).Potential (V)	WE(1).Current (A)
13.6987	1.27014	7.99866e-05
14.1987	1.52405	8.00781e-05
14.6987	1.5271	7.95593e-05
15.1987	1.52832	8.00171e-05
15.6987	1.52893	8.03223e-05
16.1987	1.52924	7.94983e-05
16.6987	1.52985	7.96814e-05
17.1987	1.53015	8.02612e-05
17.6987	1.53046	8.00171e-05
18.1987	1.53076	8.04749e-05
18.6987	1.53076	7.95593e-05
19.1987	1.53107	7.98035e-05
19.6987	1.53137	8.04443e-05
20.1987	1.53137	7.97424e-05
20.6987	1.53168	7.96204e-05
21.1987	1.53168	8.04138e-05
21.6987	1.53198	8.03223e-05
22.1987	1.53198	7.94678e-05
22.6987	1.53229	8.00476e-05
23.1987	1.53229	7.96814e-05
23.6987	1.53229	7.97424e-05
24.1987	1.53259	8.04443e-05
24.6987	1.53259	7.95288e-05
25.1987	1.5329	8.01392e-05
25.6987	1.5329	8.02917e-05
26.1987	1.5329	8.03528e-05
26.6987	1.5329	8.03528e-05
27.1987	1.5332	7.97424e-05
27.6987	1.5332	8.02307e-05
28.1987	1.5332	8.01697e-05
28.6987	1.53351	8.01086e-05
29.1987	1.53351	8.00476e-05
29.6987	1.53351	7.98035e-05
30.1987	1.53351	7.95898e-05
30.6987	1.53381	8.03528e-05
31.1987	1.53381	8.00781e-05
31.6987	1.53381	7.96204e-05
32.1987	1.53381	7.97119e-05
32.6987	1.53381	7.95898e-05
33.1987	1.53412	8.03223e-05
33.6987	1.53412	7.95593e-05
34.1987	1.53412	8.03223e-05
34.6987	1.53412	8.04443e-05
35.1987	1.53412	8.02917e-05
35.6987	1.53412	8.03833e-05
36.1987	1.53442	7.95593e-05
36.6987	1.53442	8.03833e-05
37.1987	1.53442	7.99561e-05
37.6987	1.53442	8.04138e-05
38.1987	1.53442	8.01086e-05
38.6987	1.53473	7.95898e-05
39.1987	1.53473	8.02307e-05
39.6987	1.53473	7.99866e-05
40.1987	1.53473	8.02917e-05
40.6987	1.53473	7.97119e-05
41.1987	1.53473	8.02917e-05
41.6987	1.53473	7.9834e-05
42.1987	1.53503	7.96814e-05
42.6987	1.53503	8.03223e-05
43.1987	1.53503	7.94983e-05
43.6987	1.53503	8.04749e-05
44.1987	1.53503	7.95898e-05
44.6987	1.53534	8.03833e-05
45.1987	1.53534	7.95593e-05
45.6987	1.53534	8.04138e-05
46.1987	1.53534	8.04138e-05
46.6987	1.53534	7.95288e-05
47.1987	1.53534	7.95898e-05
47.6987	1.53534	8.02917e-05
48.1987	1.53564	7.98035e-05
48.6987	1.53564	7.97424e-05
49.1987	1.53564	7.97729e-05
49.6987	1.53564	8.01697e-05
50.1987	1.53564	7.97729e-05
50.6987	1.53564	7.98645e-05
51.1987	1.53564	7.96509e-05
51.6987	1.53564	8.01697e-05
52.1987	1.53595	7.98035e-05
52.6987	1.53595	8.02307e-05
53.1987	1.53595	7.97729e-05
53.6987	1.53595	8.00476e-05
54.1987	1.53595	7.99255e-05
54.6987	1.53595	8.00171e-05
55.1987	1.53595	8.04138e-05
55.6987	1.53625	7.9895e-05
56.1987	1.53625	8.02002e-05
56.6987	1.53625	7.96814e-05
57.1987	1.53625	8.03223e-05
57.6987	1.53625	7.95593e-05
58.1987	1.53625	8.02612e-05
58.6987	1.53656	7.95898e-05
59.1987	1.53656	8.03223e-05
59.6987	1.53656	7.95898e-05
60.1987	1.53656	8.02612e-05
60.6987	1.53656	8.03223e-05
61.1987	1.53656	7.9895e-05
61.6987	1.53656	7.96204e-05
62.1987	1.53656	8.00476e-05
62.6987	1.53687	7.96509e-05
63.1987	1.53687	8.03528e-05
63.6987	1.53687	8.04443e-05
64.1987	1.53687	7.99561e-05
64.6987	1.53687	8.04138e-05
65.1987	1.53687	7.95593e-05
65.6987	1.53687	8.03833e-05
66.1987	1.53717	7.95288e-05
66.6987	1.53717	7.94678e-05
67.1987	1.53717	7.99561e-05
67.6987	1.53717	7.94678e-05
68.1987	1.53717	8.03833e-05
68.6987	1.53717	7.96204e-05
69.1987	1.53717	8.02917e-05
69.6987	1.53717	8.05054e-05
70.1987	1.53748	8.02917e-05
70.6987	1.53748	8.03223e-05
71.1987	1.53748	7.94983e-05
71.6987	1.53748	8.03833e-05
72.1987	1.53748	7.95593e-05
72.6987	1.53748	7.96509e-05
73.1987	1.53748	7.95288e-05
73.6987	1.53748	7.95593e-05
74.1987	1.53778	8.00171e-05
74.6987	1.53778	8.03223e-05
75.1987	1.53778	7.97729e-05
75.6987	1.53778	8.02307e-05
76.1987	1.53778	7.96509e-05
76.6987	1.53778	7.95593e-05
77.1987	1.53809	8.01697e-05
77.6987	1.53809	7.94983e-05
78.1987	1.53809	8.04138e-05
78.6987	1.53809	8.03223e-05
79.1987	1.53809	7.95288e-05
79.6987	1.53809	7.94983e-05
80.1987	1.53809	8.04443e-05
80.6987	1.53809	7.95288e-05
81.1987	1.53839	8.04138e-05
81.6987	1.53839	7.98035e-05
82.1987	1.53839	7.9895e-05
82.6987	1.53839	7.95593e-05
83.1987	1.53839	8.03833e-05
83.6987	1.53839	7.99866e-05
84.1987	1.53839	8.02002e-05
84.6987	1.53839	7.97729e-05
85.1987	1.53839	7.95898e-05
85.6987	1.53839	8.04443e-05
86.1987	1.5387	7.95593e-05
86.6987	1.5387	8.03223e-05
87.1987	1.5387	7.95593e-05
87.6987	1.5387	8.04443e-05
88.1987	1.5387	8.02612e-05
88.6987	1.5387	7.9834e-05
89.1987	1.539	7.96509e-05
89.6987	1.539	8.03833e-05
90.1987	1.539	7.95288e-05
90.6987	1.539	8.03528e-05
91.1987	1.53931	8.03223e-05
91.6987	1.53931	7.98645e-05
92.1987	1.53931	8.00476e-05
92.6987	1.53931	7.96204e-05
93.1987	1.53931	7.9834e-05
93.6987	1.53931	7.96204e-05
94.1987	1.53931	8.03833e-05
94.6987	1.53961	7.95593e-05
95.1987	1.53931	8.03223e-05
95.6987	1.53961	7.95288e-05
96.1987	1.53961	8.04138e-05
96.6987	1.53961	8.04443e-05
97.1987	1.53961	7.95593e-05
97.6987	1.53961	8.04443e-05
98.1987	1.53961	7.96204e-05
98.6987	1.53961	8.00781e-05
99.1987	1.53961	7.97119e-05
99.6987	1.53961	8.04138e-05
100.199	1.53961	8.00476e-05
100.699	1.53961	8.03833e-05
101.199	1.53992	7.95593e-05
101.699	1.53992	8.02917e-05
102.199	1.53992	7.95898e-05
102.699	1.53992	7.98645e-05
103.199	1.54022	8.03528e-05
103.699	1.54022	7.95898e-05
104.199	1.54022	8.00476e-05
104.699	1.54022	7.94983e-05
105.199	1.54022	7.99866e-05
105.699	1.54022	8.01086e-05
106.199	1.54022	8.02917e-05
106.699	1.54022	7.96204e-05
107.199	1.54022	8.03528e-05
107.699	1.54053	7.96814e-05
108.199	1.54053	7.94067e-05
108.699	1.54053	8.03528e-05
109.199	1.54053	8.02307e-05
109.699	1.54053	7.95288e-05
110.199	1.54053	8.03223e-05
110.699	1.54053	7.95898e-05
111.199	1.54053	8.01086e-05
111.699	1.54053	8.03833e-05
112.199	1.54053	8.03223e-05
112.699	1.54053	7.95288e-05
113.199	1.54053	8.04138e-05
113.699	1.54053	7.94678e-05
114.199	1.54053	8.04138e-05
114.699	1.54053	7.96204e-05
115.199	1.54053	8.01086e-05
115.699	1.54053	7.97424e-05
116.199	1.54053	7.9834e-05
116.699	1.54053	8.01697e-05
117.199	1.54053	7.96204e-05
117.699	1.54053	7.94678e-05
118.199	1.54053	8.04749e-05
118.699	1.54083	7.94983e-05
119.199	1.54053	8.03223e-05
119.699	1.54053	7.94983e-05
120.199	1.54053	8.02612e-05
120.699	1.54083	8.01697e-05
121.199	1.54083	7.98645e-05
121.699	1.54083	8.01086e-05
122.199	1.54083	7.98035e-05
122.699	1.54083	7.95288e-05
123.199	1.54083	8.04749e-05
123.699	1.54083	8.03528e-05
124.199	1.54083	7.96509e-05
124.699	1.54083	8.03833e-05
125.199	1.54083	7.96814e-05
125.699	1.54083	7.97119e-05
126.199	1.54083	8.00476e-05
126.699	1.54083	8.03528e-05
127.199	1.54114	7.95898e-05
127.699	1.54114	8.03833e-05
128.199	1.54114	7.97119e-05
128.699	1.54114	7.96814e-05
129.199	1.54114	8.04443e-05
129.699	1.54114	8.02917e-05
130.199	1.54114	7.96509e-05
130.699	1.54114	8.02917e-05
131.199	1.54114	7.94678e-05
131.699	1.54114	8.03833e-05
132.199	1.54114	8.01697e-05
132.699	1.54114	7.97729e-05
133.199	1.54114	8.00476e-05
133.699	1.54114	7.95898e-05
134.199	1.54114	8.02612e-05
134.699	1.54114	7.99866e-05
135.199	1.54144	8.02002e-05
135.699	1.54114	7.97424e-05
136.199	1.54144	8.02917e-05
136.699	1.54144	7.97424e-05
137.199	1.54144	8.03223e-05
137.699	1.54144	7.95593e-05
138.199	1.54144	8.04443e-05
138.699	1.54144	8.03833e-05
139.199	1.54144	7.96204e-05
139.699	1.54144	8.02917e-05
140.199	1.54175	7.95898e-05
140.699	1.54175	8.02002e-05
141.199	1.54175	8.00781e-05
141.699	1.54175	8.01086e-05
142.199	1.54175	8.02307e-05
142.699	1.54175	7.96814e-05
143.199	1.54175	8.03833e-05
143.699	1.54175	7.95288e-05
144.199	1.54205	7.96509e-05
144.699	1.54205	7.96509e-05
145.199	1.54205	7.96204e-05
145.699	1.54205	8.03833e-05
146.199	1.54205	7.95288e-05
146.699	1.54205	8.02612e-05
147.199	1.54205	8.00171e-05
147.699	1.54236	8.03223e-05
148.199	1.54236	8.04138e-05
148.699	1.54236	7.96204e-05
149.199	1.54236	8.03833e-05
149.699	1.54236	7.95288e-05
150.199	1.54236	8.00171e-05
150.699	1.54236	8.03528e-05
151.199	1.54236	8.03528e-05
151.699	1.54236	7.97424e-05
152.199	1.54266	7.97424e-05
152.699	1.54266	7.99255e-05
153.199	1.54266	7.95288e-05
153.699	1.54266	7.9895e-05
154.199	1.54266	7.96204e-05
154.699	1.54266	8.03223e-05
155.199	1.54266	7.95593e-05
155.699	1.54297	8.03833e-05
156.199	1.54297	8.04443e-05
156.699	1.54297	8.03528e-05
157.199	1.54297	7.99561e-05
157.699	1.54297	7.97729e-05
158.199	1.54327	8.03223e-05
158.699	1.54327	7.96814e-05
159.199	1.54327	7.94678e-05
159.699	1.54327	7.96509e-05
160.199	1.54327	7.95288e-05
160.699	1.54327	8.03528e-05
161.199	1.54327	7.95593e-05
161.699	1.54327	8.03833e-05
162.199	1.54327	8.04138e-05
162.699	1.54327	7.96204e-05
163.199	1.54327	7.97119e-05
163.599	1.54327	8.02917e-05