File: Edgar/20230626/20230626/electrodeposition_prussian_blue/electrodeposition_sample_B/OCP_1
Time (s)	WE(1).Potential (V)
10.9859	1.05286
11.0859	1.05286
11.1859	1.05286
11.2859	1.05286
11.3859	1.05286
11.4859	1.05286
11.5859	1.05286
11.6859	1.05286
11.7859	1.05286