File: Edgar/20240424/20240424/CV/sample-20240417_A/CV_2
Time (s)	Scan	WE(1).Potential (V)	WE(1).Current (A)	External(1).External 2 (V)	Q+	Q-
429.076	1	0.113922	9.49249e-07	3.0896
438.963	1	-0.0695801	-5.92651e-05	2.99225
448.851	1	-0.266815	-0.000107574	2.77802
458.739	1	-0.462646	-0.00021991	2.28546
468.626	1	-0.342194	0.000100098	2.03156
478.514	1	-0.146454	0.000188324	2.54456
488.402	1	0.0506287	6.22559e-05	2.99194
498.289	2	0.247101	4.57153e-06	3.08838
508.177	2	0.444519	1.91986e-06	3.0899
518.065	2	0.640778	1.37726e-06	3.0896
527.952	2	0.836487	1.1969e-06	3.06946
537.84	2	0.957336	8.74939e-07	3.04901
547.728	2	0.758362	5.48096e-07	3.06976
557.615	2	0.562683	3.95203e-07	3.06976
567.503	2	0.365692	2.74963e-07	3.06976
577.391	2	0.170135	-1.75781e-06	3.07098
587.278	2	-0.0252838	-4.84558e-05	3.03162
597.166	2	-0.223999	-9.21326e-05	2.79694
607.054	2	-0.420166	-0.000188629	2.34497
616.941	2	-0.383728	4.68445e-05	1.89423
626.829	2	-0.187195	0.000195374	2.32422
636.717	2	0.0108307	8.36182e-05	2.89429
646.604	3	0.206451	7.32727e-06	3.05084
656.492	3	0.403473	2.06604e-06	3.07068
666.38	3	0.599304	1.35101e-06	3.07068
676.267	3	0.794983	1.07422e-06	3.07037
686.155	3	0.994873	1.026e-06	3.04993
696.043	3	0.800171	5.71899e-07	3.06915
705.93	3	0.605011	4.31519e-07	2.97272
715.818	3	0.407776	2.89307e-07	3.07037
725.706	3	0.210876	-2.58606e-07	3.08929
735.593	3	0.0161621	-3.75916e-05	3.03162
745.481	3	-0.182709	-8.30383e-05	2.8363
755.369	3	-0.379791	-0.000161499	2.4234
765.256	3	-0.425354	-2.43073e-05	1.85577
775.144	3	-0.227417	0.000187439	2.1286
785.032	3	-0.0293091	0.000109619	2.83661
794.919	4	0.164886	1.60309e-05	3.03131
804.807	4	0.362091	2.36969e-06	3.05023
814.695	4	0.557892	1.4856e-06	3.03101
824.582	4	0.755615	1.09009e-06	3.07007
834.47	4	0.953064	9.95483e-07	3.06885
844.358	4	0.843811	6.08215e-07	3.06946
854.245	4	0.64621	3.87878e-07	3.06885
864.133	4	0.448425	3.28369e-07	3.05084
874.021	4	0.252594	3.87573e-08	3.05145
883.908	4	0.055481	-2.60254e-05	3.03131
893.796	4	-0.142212	-7.48291e-05	2.87506
903.684	4	-0.33847	-0.000136261	2.51862
913.571	4	-0.534546	-0.000260071	1.85486
923.459	4	-0.468201	3.52295e-05	1.46423
933.347	4	-0.271515	0.000217987	1.73859
943.234	4	-0.075531	0.000179871	2.64069
953.122	5	0.121277	3.591e-05	2.99255
963.01	5	0.317322	3.81042e-06	3.03101
972.897	5	0.51413	2.24548e-06	3.04993
982.785	5	0.711243	1.73859e-06	3.04932
992.673	5	0.908203	1.35406e-06	3.06885
1002.56	5	0.886536	9.84192e-07	3.04993
1012.45	5	0.690399	7.23267e-07	3.03131
1022.34	5	0.493378	5.34363e-07	3.06946
1032.22	5	0.295837	3.52478e-07	3.05115
1042.11	5	0.0995178	-1.43677e-05	3.06976
1052	5	-0.0975647	-6.54907e-05	2.93365
1061.89	5	-0.294739	-0.000113281	2.62115
1071.77	5	-0.490723	-0.000231445	1.97235
1081.66	5	-0.513123	-4.05823e-05	1.44562
1091.55	5	-0.315582	0.000192596	1.60095
1101.44	5	-0.119232	0.000218567	2.38312
1111.32	5	0.0778198	5.56946e-05	2.95288
1121.21	6	0.274506	4.68445e-06	3.03162
1131.1	6	0.471375	2.47131e-06	3.05084
1140.99	6	0.668304	1.83533e-06	3.05023
1150.88	6	0.863953	1.40472e-06	3.04871
1160.76	6	0.929565	1.06354e-06	3.03101
1170.65	6	0.734131	7.51648e-07	3.04962
1180.54	6	0.536469	5.94788e-07	3.05023
1190.43	6	0.33902	4.74548e-07	3.05023
1200.31	6	0.142059	-5.34668e-06	3.04993
1210.2	6	-0.054657	-5.5603e-05	2.97211
1220.09	6	-0.250336	-9.75952e-05	2.67975
1229.98	6	-0.447968	-0.000203857	2.1286
1239.86	6	-0.556335	-0.000142731	1.46301
1249.75	6	-0.358704	0.000160095	1.46332
1259.64	6	-0.162628	0.00023587	2.12891
1269.53	6	0.0357666	7.89795e-05	2.89429
1279.42	7	0.229736	6.56433e-06	3.0304
1289.3	7	0.427307	2.77252e-06	3.04993
1299.19	7	0.623749	1.91101e-06	3.03009
1309.08	7	0.819702	1.5155e-06	3.04962
1318.97	7	0.973206	1.19995e-06	3.04901
1328.85	7	0.776367	8.5968e-07	3.04962
1338.74	7	0.579742	6.3446e-07	3.05023
1348.63	7	0.3828125	4.80347e-07	3.04962
1358.52	7	0.186371	-9.1217e-07	3.05084
1368.4	7	-0.00799561	-4.46472e-05	2.99225
1378.29	7	-0.20755	-8.63647e-05	2.75726
1388.18	7	-0.404266	-0.000175476	2.26532
1398.07	7	-0.601044	-0.00029425	1.54205
1407.95	7	-0.602997	-7.51038e-05	1.10535
1417.84	7	-0.404694	0.000188507	1.18408
1427.73	7	-0.208069	0.000275085	1.67847
1437.62	7	-0.0102844	0.00013916	2.7771
1447.51	8	0.184204	1.53687e-05	3.03131
1457.39	8	0.380402	3.98529e-06	3.03101
1467.28	8	0.578064	2.67395e-06	3.04993
1477.17	8	0.775146	2.12402e-06	3.04901
1487.06	8	0.971069	1.70654e-06	3.06793
1496.94	8	0.822754	1.17493e-06	3.06946
1506.83	8	0.626648	8.81653e-07	3.05054
1516.72	8	0.429047	7.55005e-07	3.07007
1526.61	8	0.233215	2.84729e-07	3.05023
1536.49	8	0.0377869	-3.28339e-05	3.01208
1546.38	8	-0.160767	-7.7179e-05	2.81616
1556.27	8	-0.357849	-0.000146759	2.32361
1566.16	8	-0.553802	-0.000268738	1.60126
1576.05	8	-0.649139	-0.000184387	1.04675
1585.93	8	-0.451721	0.000148499	1.02814
1595.82	8	-0.254364	0.000267059	1.38458
1605.71	8	-0.0585327	0.00020163	2.56317
1615.6	9	0.137421	3.39874e-05	2.95258
1625.48	9	0.334808	4.58984e-06	3.03192
1635.37	9	0.531586	2.99469e-06	3.05054
1645.26	9	0.728699	2.2821e-06	3.03101
1655.15	9	0.924377	1.87592e-06	3.01147
1665.03	9	0.869141	1.25732e-06	3.04901
1674.92	9	0.672607	1.00372e-06	3.06885
1684.81	9	0.475403	7.92847e-07	3.05084
1694.7	9	0.278381	5.14526e-07	3.05054
1704.59	9	0.0813599	-2.02423e-05	3.05115
1714.47	9	-0.114563	-6.88782e-05	2.87537
1724.36	9	-0.31073	-0.000121735	2.44141
1734.25	9	-0.507263	-0.0002421875	1.65955
1744.14	9	-0.694977	-0.000336243	0.98938
1754.02	9	-0.497589	9.63745e-05	0.851746
1763.91	9	-0.300995	0.000249756	1.12549
1773.8	9	-0.104279	0.000249756	2.10876
1783.69	9	0.0921326	5.65186e-05	2.91412
1793.57	10	0.288177	5.51147e-06	2.99133
1803.46	10	0.486084	3.24188e-06	2.99194
1813.35	10	0.682159	2.40448e-06	2.99194
1823.24	10	0.879211	1.95251e-06	3.0307
1833.12	10	0.914612	1.42059e-06	3.0307
1843.01	10	0.718842	1.05347e-06	3.03162
1852.9	10	0.521423	8.36792e-07	3.05054
1862.79	10	0.325531	6.073e-07	3.04993
1872.68	10	0.127441	-8.80127e-06	3.03162
1882.56	10	-0.0691833	-5.96313e-05	2.91412
1892.45	10	-0.265839	-0.000102997	2.56378
1902.34	10	-0.461121	-0.000214325	1.79657
1912.23	10	-0.659271	-0.000329712	1.04767
1922.11	10	-0.744537	-0.000251251	0.675842
1932	10	-0.546112	0.000114349	0.636108
1941.89	10	-0.348785	0.000276794	0.831909
1951.78	10	-0.152283	0.000312073	1.50299
1961.66	10	0.0450348	0.000111664	2.81647
1971.55	11	0.23996	9.24377e-06	2.95197
1981.44	11	0.437378	4.56238e-06	2.95105
1991.33	11	0.633575	3.31299e-06	2.99103
2001.22	11	0.829468	2.56073e-06	2.99072
2011.1	11	0.963745	1.97876e-06	2.99072
2020.99	11	0.766602	1.47278e-06	2.99133
2030.88	11	0.57135	1.10382e-06	3.01147
2040.77	11	0.373291	9.21326e-07	3.01239
2050.65	11	0.176697	-1.5033e-06	3.0127
2060.54	11	-0.0184235	-4.7995e-05	2.95319
2070.43	11	-0.216309	-8.94775e-05	2.6413
2080.32	11	-0.413727	-0.00018338	1.95343
2090.2	11	-0.610748	-0.000300385	1.16577
2100.09	11	-0.793152	-0.000405884	0.714783
2109.98	11	-0.596008	4.87213e-05	0.616699
2119.87	11	-0.398224	0.000250305	0.753784
2129.75	11	-0.200165	0.000315125	1.20392
2139.64	11	-0.00354919	0.000179901	2.64099
2149.53	12	0.191986	1.76361e-05	2.91382
2159.42	12	0.388397	5.10254e-06	2.95197
2169.31	12	0.585449	3.6441e-06	2.9715
2179.19	12	0.780945	2.79816e-06	2.9715
2189.08	12	0.978088	2.26929e-06	2.97089
2198.97	12	0.814819	1.61255e-06	2.9715
2208.86	12	0.618866	1.20514e-06	2.99133
2218.74	12	0.422485	1.00128e-06	2.97119
2228.63	12	0.225037	3.71704e-07	2.97241
2238.52	12	0.0304382	-3.57971e-05	2.97333
2248.41	12	-0.168427	-7.94373e-05	2.73834
2258.29	12	-0.364929	-0.000152649	2.16614
2268.18	12	-0.561829	-0.000273407	1.3266
2278.07	12	-0.760193	-0.000401398	0.77301
2287.96	12	-0.644409	-3.01025e-05	0.616669
2297.85	12	-0.447083	0.000214752	0.695038
2307.73	12	-0.249329	0.000308228	1.04767
2317.62	12	-0.0531006	0.000252594	2.2641
2327.51	13	0.142975	3.98132e-05	2.89368
2337.4	13	0.34024	5.79224e-06	2.91229
2347.28	13	0.536743	3.81622e-06	2.93213
2357.17	13	0.7341	2.96143e-06	2.95074
2367.06	13	0.929565	2.42249e-06	2.95074
2376.95	13	0.863342	1.68671e-06	2.95135
2386.83	13	0.667694	1.29639e-06	2.95074
2396.72	13	0.471069	1.03882e-06	2.97089
2406.61	13	0.274719	7.39441e-07	2.97119
2416.5	13	0.0770874	-2.28851e-05	2.95227
2426.38	13	-0.120209	-7.06787e-05	2.81494
2436.27	13	-0.316681	-0.000125732	2.3233
2446.16	13	-0.51297	-0.000245941	1.54114
2456.05	13	-0.710358	-0.000364594	0.870667
2465.94	13	-0.892639	-0.000501404	0.576752
2475.82	13	-0.695221	-2.33765e-05	0.498688
2485.71	13	-0.497864	0.000228821	0.557739
2495.6	13	-0.299774	0.000341919	0.7724
2505.49	13	-0.103638	0.000354004	1.56067
2515.37	13	0.0918579	0.000106323	2.79541
2525.26	14	0.288422	9.552e-06	2.89276
2535.15	14	0.485474	5.68848e-06	2.91351
2545.04	14	0.681946	4.17847e-06	2.91199
2554.92	14	0.879822	3.31818e-06	2.93121
2564.81	14	0.916138	2.41608e-06	2.91168
2574.7	14	0.719666	1.79169e-06	2.93243
2584.59	14	0.521759	1.41174e-06	2.93243
2594.48	14	0.324585	1.11176e-06	2.91321
2604.36	14	0.127808	-9.57031e-06	2.93182
2614.25	14	-0.0689697	-6.06384e-05	2.83478
2624.14	14	-0.264862	-0.000104736	2.45941
2634.03	14	-0.46167	-0.000216187	1.69891
2643.91	14	-0.658875	-0.000331757	0.969849
2653.8	14	-0.855713	-0.000485931	0.6362
2663.69	14	-0.74707	-0.000116058	0.478546
2673.58	14	-0.548859	0.000177765	0.538361
2683.46	14	-0.351868	0.000324829	0.714478
2693.35	14	-0.154297	0.000361725	1.2619
2703.24	14	0.0435455	0.000192261	2.64069
2713.13	15	0.237152	1.33301e-05	2.85431
2723.02	15	0.434845	6.31714e-06	2.89398
2732.9	15	0.631775	4.53796e-06	2.9126
2742.79	15	0.827332	3.57849e-06	2.9129
2752.68	15	0.967407	2.77618e-06	2.91321
2762.57	15	0.769043	1.9754e-06	2.9126
2772.45	15	0.573181	1.61102e-06	2.91351
2782.34	15	0.376556	1.21826e-06	2.91321
2792.23	15	0.1796875	-1.30341e-06	2.93274
2802.12	15	-0.0148682	-4.85291e-05	2.85492
2812	15	-0.214081	-9.03625e-05	2.56317
2821.89	15	-0.411285	-0.000183746	1.91376
2831.78	15	-0.607452	-0.000300537	1.12671
2841.67	15	-0.805054	-0.000440002	0.674744
2851.55	15	-0.798645	-0.000225189	0.499359
2861.44	15	-0.600922	0.000117126	0.499359
2871.33	15	-0.403351	0.000298523	0.635864
2881.22	15	-0.204437	0.000359131	1.04767
2891.11	15	-0.00756226	0.000278381	2.36298
2897.21	15	0.110504	8.5907e-05	2.79663