File: Edgar/20240424/20240424/CV/sample-20240417_A/OCP_3
Time (s)	WE(1).Potential (V)	External(1).External 2 (V)
2898.22	0.0570068	2.80151
2899.22	0.0484406	2.82013
2900.22	0.0422424	2.80151
2901.22	0.0372528	2.82074
2902.22	0.0330475	2.8009
2903.22	0.0293793	2.78198
2904.22	0.0261383	2.80151
2905.22	0.0232239	2.82043
2906.22	0.020578	2.80151
2907.22	0.018161	2.82043
2908.22	0.0159332	2.80121
2909.22	0.0138702	2.81921
2910.22	0.0119812	2.8009
2911.22	0.0101959	2.80121
2912.22	0.00853577	2.82043
2913.22	0.00696106	2.80151
2914.22	0.00549316	2.80029
2915.22	0.00410767	2.80121
2916.22	0.0027832	2.80029
2917.22	0.0015564	2.80029
2918.22	0.000387573	2.80121
2919.22	-0.000726318	2.78198
2920.22	-0.00178833	2.80121
2921.22	-0.00279236	2.80121
2922.22	-0.0037384	2.80121
2923.22	-0.00464783	2.78168
2924.22	-0.00552063	2.79999
2925.22	-0.00636597	2.78198
2926.22	-0.00716858	2.80182
2927.22	-0.00793457	2.80151
2928.22	-0.00866089	2.80121
2929.22	-0.00936279	2.80121
2930.22	-0.0100555	2.8006
2931.22	-0.0106873	2.80151
2932.22	-0.0112976	2.80151
2933.22	-0.0118866	2.80151
2934.22	-0.0124603	2.80151
2935.22	-0.0130066	2.78107
2936.22	-0.0135223	2.80151
2937.22	-0.0140472	2.78229
2938.22	-0.0145172	2.78229
2939.22	-0.0149719	2.80121
2940.22	-0.0154266	2.80121
2941.22	-0.0158661	2.78198
2942.22	-0.0162842	2.8009
2943.22	-0.016684	2.78168
2944.22	-0.0170807	2.8006
2945.22	-0.0174286	2.80182
2946.22	-0.0177917	2.8006
2947.22	-0.0181305	2.8006
2948.22	-0.0184753	2.78137
2949.22	-0.0187836	2.80151
2950.22	-0.019104	2.78198
2951.22	-0.0194031	2.78168
2952.22	-0.0197052	2.80121
2953.22	-0.0199829	2.78168
2954.22	-0.0202545	2.78137
2955.22	-0.0205261	2.78168
2956.22	-0.0207825	2.78107
2957.22	-0.0210266	2.78168
2958.22	-0.0212616	2.80151
2959.22	-0.0214783	2.78168
2960.22	-0.0217072	2.78137
2961.22	-0.0219177	2.76245
2962.22	-0.0221161	2.78168
2963.22	-0.0223114	2.78137
2964.22	-0.0225006	2.78168
2965.22	-0.0226868	2.78168
2966.22	-0.0228638	2.78198
2967.22	-0.0230316	2.78107
2968.22	-0.0231903	2.78198
2969.22	-0.0233368	2.78137
2970.22	-0.0234802	2.7829
2971.22	-0.0236237	2.78168
2972.22	-0.023764	2.80029
2973.22	-0.0238922	2.80151
2974.22	-0.0240112	2.78168
2975.22	-0.0241394	2.80121
2976.22	-0.0242493	2.78107
2977.22	-0.0243622	2.78076
2978.22	-0.024472	2.78168
2979.22	-0.0245819	2.79999
2980.22	-0.0246979	2.80121
2981.22	-0.0247894	2.78198
2982.22	-0.0248962	2.78168
2983.22	-0.0249756	2.78229
2984.22	-0.0250702	2.78168
2985.22	-0.0251495	2.78198
2986.22	-0.0252228	2.78137
2987.22	-0.0253052	2.78229
2988.22	-0.0253784	2.78107
2989.22	-0.0254486	2.76215
2990.22	-0.0255005	2.78229
2991.22	-0.0255676	2.76184
2992.22	-0.0256317	2.78229
2993.22	-0.0256805	2.78076
2994.22	-0.0257324	2.76276
2995.22	-0.0257843	2.79999
2996.22	-0.025827	2.80151
2997.22	-0.0258728	2.78198
2998.22	-0.0259186	2.78198
2999.22	-0.0259491	2.78168
3000.22	-0.0259796	2.78168
3001.22	-0.0260193	2.78137
3002.22	-0.0260468	2.78107
3003.22	-0.0260712	2.80121
3004.22	-0.0260925	2.78168
3005.22	-0.0261261	2.78137
3006.22	-0.0261414	2.76154
3007.22	-0.0261658	2.80121
3008.22	-0.026181	2.78229
3009.22	-0.0261871	2.78107
3010.22	-0.0262115	2.78168
3011.22	-0.0262146	2.78046
3012.22	-0.0262238	2.78198
3013.22	-0.0262177	2.8009
3014.22	-0.0262268	2.78259
3015.22	-0.0262299	2.80182
3016.22	-0.0262268	2.78198
3017.22	-0.0262238	2.76245
3018.22	-0.0262177	2.78137
3019.22	-0.0262238	2.80029
3020.22	-0.0262146	2.8006
3021.22	-0.0262207	2.80121
3022.22	-0.0262115	2.80029
3023.22	-0.0261993	2.78168
3024.22	-0.0261993	2.78168
3025.22	-0.0261993	2.78168
3026.22	-0.026178	2.78168
3027.22	-0.0261597	2.78229
3028.22	-0.0261383	2.78229
3029.22	-0.0261261	2.78229
3030.22	-0.0261017	2.78076
3031.22	-0.0260895	2.8009
3032.22	-0.0260681	2.80121
3033.22	-0.0260406	2.80151
3034.22	-0.0260193	2.80121
3035.22	-0.0259979	2.78168
3036.22	-0.0259766	2.78137
3037.22	-0.0259521	2.78137
3038.22	-0.0259308	2.8009
3039.22	-0.0259033	2.78168
3040.22	-0.0258881	2.78168
3041.22	-0.0258392	2.78168
3042.22	-0.0258179	2.78137
3043.22	-0.02578125	2.78198
3044.22	-0.0257599	2.78198
3045.22	-0.0257202	2.78076
3046.22	-0.0256866	2.78168
3047.22	-0.0256439	2.78137
3048.22	-0.0256104	2.80029
3049.22	-0.0255737	2.78076
3050.22	-0.025531	2.79877
3051.22	-0.0254791	2.78198
3052.22	-0.0254425	2.80121
3053.22	-0.0254059	2.76215
3054.22	-0.0253601	2.78168
3055.22	-0.0253296	2.78198
3056.22	-0.0252747	2.8009
3057.22	-0.0252197	2.78107
3058.22	-0.025174	2.78168
3059.22	-0.0251312	2.80151
3060.22	-0.0250854	2.8006
3061.22	-0.0250336	2.78198
3062.22	-0.0250031	2.78168
3063.22	-0.024942	2.78168
3064.22	-0.024884	2.78107
3065.22	-0.0248322	2.78137
3066.22	-0.0247894	2.78198
3067.22	-0.0247314	2.80151
3068.22	-0.0246765	2.78198
3069.22	-0.0246216	2.78198
3070.22	-0.0245728	2.78107
3071.22	-0.024527	2.78168
3072.22	-0.0244629	2.8009
3073.22	-0.0244141	2.80151
3074.22	-0.024353	2.78229
3075.22	-0.024292	2.8009
3076.22	-0.0242279	2.78107
3077.22	-0.0241852	2.80121