File: Edgar/20240424/20240424/CV/sample-20240417_A/OCP_1
Time (s)	WE(1).Potential (V)	External(1).External 2 (V)
303.494	0.109161	3.11462
304.494	0.109222	3.11462
305.494	0.109253	3.11493
306.494	0.109283	3.13416
307.494	0.109344	3.11462
308.494	0.109375	3.13416
309.494	0.109406	3.11554
310.494	0.109436	3.11462
311.494	0.109497	3.11432
312.494	0.109528	3.11493
313.494	0.109558	3.13446
314.494	0.109589	3.11493
315.494	0.109619	3.11493
316.494	0.10965	3.11493
317.494	0.109711	3.11401
318.494	0.109741	3.11493
319.494	0.109772	3.11523
320.494	0.109833	3.13324
321.494	0.109863	3.09509
322.494	0.109894	3.13385
323.494	0.109924	3.11432
324.494	0.109955	3.11432
325.494	0.110016	3.11462
326.494	0.110046	3.09509
327.494	0.110107	3.11401
328.494	0.110168	3.11462
329.494	0.110199	3.0954
330.494	0.110229	3.11523
331.494	0.110291	3.11432
332.494	0.110321	3.11462
333.494	0.110352	3.11432
334.494	0.110382	3.11401
335.494	0.110443	3.11462
336.494	0.110474	3.11462
337.494	0.110535	3.11523
338.494	0.110565	3.13446
339.494	0.110596	0.0501404
340.494	0.110657	0.0500488
341.494	0.110687	0.0501404
342.494	0.110748	0.0498962
343.494	0.110748	0.0500793
344.494	0.110809	0.0499878
345.494	0.11084	0.0500488
346.494	0.11087	0.0498047
347.494	0.110901	0.0500488
348.494	0.110931	0.0501099
349.494	0.110992	0.0499573
350.494	0.111023	2.52228
351.494	0.111084	3.13416
352.494	0.111115	3.11432
353.494	0.111145	3.11401
354.494	0.111176	3.09418
355.494	0.111206	3.11432
356.494	0.111267	3.11401
357.494	0.111328	3.0954
358.494	0.111328	3.09601
359.494	0.111389	3.11371
360.494	0.11142	3.11462
361.494	0.11142	3.09448
362.494	0.111481	3.09448
363.494	0.111511	3.09509
364.494	0.111542	3.09418
365.494	0.111572	3.09479
366.494	0.111633	3.11462
367.494	0.111664	3.09479
368.494	0.111694	3.0954
369.494	0.111725	3.09448
370.494	0.111786	3.11432
371.494	0.111816	3.13354
372.494	0.111847	3.11493
373.494	0.111877	3.09448
374.494	0.111938	3.11523
375.494	0.111969	3.11462
376.494	0.112	3.11371
377.494	0.11203	3.0957
378.494	0.112061	3.13293
379.494	0.112091	3.11401
380.494	0.112152	3.11432
381.494	0.112183	3.0954
382.494	0.112213	3.13385
383.494	0.112244	3.11432
384.494	0.112274	3.11432
385.494	0.112305	3.11371
386.494	0.112366	3.11432
387.494	0.112396	3.11401
388.494	0.112457	3.11493
389.494	0.112457	3.11401
390.494	0.112488	3.09448
391.494	0.112518	3.11401
392.494	0.112579	3.11462
393.494	0.11261	3.11401
394.494	0.11264	3.09479
395.494	0.112671	3.09448
396.494	0.112701	3.09479
397.494	0.112732	3.11462
398.494	0.112732	3.1134
399.494	0.112793	3.11401
400.494	0.112823	3.1131
401.494	0.112854	3.09448
402.494	0.112885	3.11401
403.494	0.112915	3.11371
404.494	0.112976	3.0957
405.494	0.113007	3.11401
406.494	0.113007	3.09479
407.494	0.113068	3.11432
408.494	0.113068	3.11371
409.494	0.113129	3.07556
410.494	0.113129	3.09479
411.494	0.11319	3.0957
412.494	0.11319	3.1134
413.494	0.11322	3.09479
414.494	0.113251	3.11401
415.494	0.113312	3.11493
416.494	0.113342	3.09418
417.494	0.113403	3.1134
418.494	0.113403	3.09418
419.494	0.113464	3.09479
420.494	0.113495	3.09448
421.494	0.113525	3.09448
422.494	0.113586	3.0954