File: Edgar/20240424/20240424/CV/sample-20240417_A/OCP_0
Time (s)	WE(1).Potential (V)	External(1).External 2 (V)
3.08376	-0.440674	3.38837
4.08376	-0.453796	3.38745
5.08376	-0.466919	3.3493
6.08376	-0.46936	3.36823
7.08376	-0.467529	3.36761
8.08376	-0.443726	3.38837
9.08376	-0.46875	3.36914
10.0838	-0.467529	3.36945
11.0838	-0.472412	3.36823
12.0838	-0.464783	3.36853
13.0838	-0.467834	3.36792
14.0838	-0.455627	3.36823
15.0838	-0.117737	3.38867
16.0838	-0.377502	3.36792
17.0838	-0.365601	3.34961
18.0838	-0.413513	3.36823
19.0838	-0.422974	3.36823
20.0838	-0.427856	3.36884
21.0838	-0.419006	3.36975
22.0838	-0.435486	3.36914
23.0838	-0.444641	3.34961
24.0838	-0.426941	3.36914
25.0838	-0.419312	3.3493
26.0838	-0.344238	3.38837
27.0838	-0.35553	3.38806
28.0838	-0.401917	3.38928
29.0838	-0.484924	3.38806
30.0838	-0.482178	3.38715
31.0838	-0.306976	3.36884
32.0838	-0.37384	3.36792
33.0838	-0.44342	3.36914
34.0838	-0.461426	3.36792
35.0838	-0.269012	3.34808
36.0838	1.24512	3.38745
37.0838	1.0495	3.36731
38.0838	-1.08643	3.36884
39.0838	-0.806885	3.38745
40.0838	-0.672607	3.3493
41.0838	-0.637817	3.38928
42.0838	-0.627136	3.34839
43.0838	-0.679321	3.36792
44.0838	-0.6073	3.38837
45.0838	-0.604248	3.38806
46.0838	-0.596313	3.36884
47.0838	-0.577698	3.36853
48.0838	-0.535278	3.36975
49.0838	-0.552368	3.36945
50.0838	-0.509033	3.38837
51.0838	-0.534668	3.34991
52.0838	-0.520325	3.3493
53.0838	0.462952	3.38745
54.0838	3.39813	3.36823
55.0838	3.97339	3.36853
56.0838	1.60095	3.34869
57.0838	2.38007	3.34839
58.0838	1.87653	3.34869
59.0838	1.66229	2.28912
60.0838	1.68823	3.07587
61.0838	1.52435	3.07495
62.0838	1.90002	3.0954
63.0838	2.96021	3.09448
64.0838	3.07739	3.1134
65.0838	2.84637	3.21198
66.0838	3.99963	3.05603
67.0838	4.70093	3.05542
68.0838	4.98566	3.09357
69.0838	4.21417	3.03558
70.0838	4.02771	3.01605
71.0838	2.77649	3.05573
72.0838	2.22961	2.99744
73.0838	2.29797	3.0365
74.0838	1.96045	2.99744
75.0838	1.71722	2.95776
76.0838	1.57471	2.97821
77.0838	1.66412	3.03619
78.0838	1.47919	3.0368
79.0838	1.81519	2.99683
80.0838	0.577698	3.15277
81.0838	7.60223	3.15216
82.0838	7.08649	3.09418
83.0838	-0.895996	3.11493
84.0838	4.3924	3.09479
85.0838	2.89185	3.11371
86.0838	1.94397	3.07495
87.0838	0.857239	3.11401
88.0838	1.33087	3.13416
89.0838	0.979919	3.13446
90.0838	0.9198	3.11371
91.0838	0.0161133	3.11432
92.0838	0.0505371	3.11401
93.0838	0.621033	3.09448
94.0838	10	3.09174
95.0838	10	3.11127
96.0838	9.18182	3.09326
97.0838	6.70044	3.07404
98.0838	4.29138	3.09387
99.0838	4.08936	3.09387
100.084	4.23065	3.09448
101.084	3.84521	3.07556
102.084	3.48206	3.05573
103.084	2.46002	3.07495
104.084	2.79327	3.03558
105.084	2.66724	3.07556
106.084	4.90082	3.07495
107.084	-1.64124	3.07678
108.084	-8.01392	3.07617
109.084	9.12354	3.09296
110.084	6.45172	3.0542
111.084	5.57861	3.05573
112.084	6.86859	3.05511
113.084	7.88666	3.07343
114.084	7.42096	3.0545
115.084	10	3.07312
116.084	10	3.05298
117.084	9.87732	3.07343
118.084	9.7464	3.03558
119.084	6.75568	3.07373
120.084	4.70642	3.07404
121.084	4.49768	3.07465
122.084	4.44397	3.07465
123.084	4.10309	3.09387
124.084	3.78082	3.09479
125.084	3.22876	3.1131
126.084	2.85614	3.09418
127.084	5.33173	3.13354
128.084	-1.54938	3.09601
129.084	-5.20386	3.13446
130.084	-7.31537	3.09662
131.084	-4.96094	3.03772
132.084	-3.45825	3.05634
133.084	-4.28192	3.05603
134.084	-1.82526	3.07617
135.084	-2.91351	3.07526
136.084	7.05597	3.07465
137.084	10	3.09265
138.084	8.927	3.05359
139.084	5.12573	3.05481
140.084	4.48059	3.09387
141.084	4.78973	3.13171
142.084	4.17511	3.1131
143.084	3.79639	3.11432
144.084	3.45886	3.13263
145.084	3.15613	3.13354
146.084	2.93121	3.13354
147.084	2.51587	3.11371
148.084	5.43335	3.11371
149.084	-0.281067	3.0954
150.084	-6.20422	3.07617
151.084	-4.3222	3.07587
152.084	-1.64368	3.07617
153.084	-3.5907	3.03802
154.084	-2.47284	3.05634
155.084	10	3.09143
156.084	9.39972	3.07373
157.084	7.66388	3.07343
158.084	6.66382	3.09296
159.084	5.84167	3.07495
160.084	5.27161	3.07404
161.084	2.67426	3.05603
162.084	2.42859	3.11371
163.084	2.901	3.13293
164.084	2.7298	3.1134
165.084	2.49237	3.11493
166.084	2.27264	3.11401
167.084	-0.709229	3.0957
168.084	-3.08838	3.0954
169.084	-0.260406	3.13324
170.084	-0.207642	3.0954
171.084	-3.08075	3.07556
172.084	-3.68835	3.11493
173.084	-3.45093	3.11493
174.084	-1.19385	3.11432
175.084	-1.28784	3.09479
176.084	-0.339355	3.15308
177.084	-0.0907898	3.17291
178.084	0.263855	3.19275
179.084	-0.646362	3.19244
180.084	-0.892334	3.17352
181.084	-1.79199	3.19305
182.084	-2.64526	3.19305
183.084	3.00446	3.1134
184.084	-0.522461	3.19275
185.084	3.17047	3.03619
186.084	10	3.34595
187.084	10	3.36578
188.084	9.57672	3.34656
189.084	8.29254	3.36609
190.084	7.3233	3.34808
191.084	6.47736	3.34717
192.084	5.24994	3.34717
193.084	4.10767	3.36731
194.084	5.24994	3.38745
195.084	4.69238	3.34747
196.084	4.21417	3.34747
197.084	3.82294	3.36731
198.084	3.47839	3.36792
199.084	3.1897	3.36731
200.084	2.91016	3.36884
201.084	2.67639	3.36823
202.084	2.4704	3.38776
203.084	2.22931	3.34961
204.084	1.68579	3.36761
205.084	-1.33331	3.36823
206.084	-3.11798	3.36975
207.084	-6.25946	2.58789
208.084	-7.04163	3.13416
209.084	-5.34271	3.15369
210.084	-3.862	3.03772
211.084	-1.80542	3.01727
212.084	-3.90106	3.01788
213.084	-1.82281	2.97699
214.084	0.810852	3.11462
215.084	0.141907	3.21167
216.084	0.00332642	3.15399
217.084	-0.0276489	3.13354
218.084	-0.169006	3.15338
219.084	-0.256653	3.11371
220.084	-0.201416	3.11523
221.084	-0.0716858	3.07648
222.084	-0.490112	3.0957
223.084	0.0851135	3.05634
224.084	0.122742	3.05634
225.084	-0.0202637	3.03589
226.084	0.779724	3.05664
227.084	-2.78595	3.0188
228.084	0.087616	3.0368
229.084	0.105743	3.05664
230.084	0.105774	3.09509
231.084	0.105835	3.13385
232.084	0.105896	3.13446
233.084	0.105957	3.15308
234.084	0.106018	3.15399
235.084	0.106049	3.17413
236.084	0.10611	3.17322
237.084	0.106171	3.17291
238.084	0.106201	3.1723
239.084	0.106262	3.15247
240.084	0.106323	3.15277
241.084	0.106415	3.17383
242.084	0.106445	3.1723
243.084	0.106506	3.17291
244.084	0.106567	3.17383
245.084	0.106598	3.1723
246.084	0.106659	3.17291
247.084	0.10672	3.17352
248.084	0.10675	3.15369
249.084	0.106812	3.17322
250.084	0.106842	3.17352
251.084	0.106903	3.17352
252.084	0.106934	3.17352
253.084	0.106995	3.15338
254.084	0.107056	3.17261
255.084	0.107086	3.17413
256.084	0.107147	3.15369
257.084	0.107178	3.15277
258.084	0.107239	3.15216
259.084	0.1073	3.13446
260.084	0.107361	3.15247
261.084	0.107391	3.15247
262.084	0.107422	3.17383
263.084	0.107483	3.13354
264.084	0.107513	3.13416
265.084	0.107544	3.13446
266.084	0.107605	3.13416
267.084	0.107635	3.13416
268.084	0.107697	3.15338
269.084	0.107727	3.13477
270.084	0.107758	3.13324
271.084	0.107819	3.11554
272.084	0.10788	3.13416
273.084	0.10788	3.13416
274.084	0.107941	3.15277
275.084	0.107971	3.15369
276.084	0.108032	3.13446
277.084	0.108063	3.13354
278.084	0.108093	3.13354
279.084	0.108154	3.11493
280.084	0.108215	3.15399
281.084	0.108246	3.15277
282.084	0.108276	3.13324
283.084	0.108337	3.13324
284.084	0.108398	3.13416
285.084	0.108429	3.11462
286.084	0.108459	3.13446
287.084	0.108521	3.13446
288.084	0.108551	3.13446
289.084	0.108582	3.13385
290.084	0.108643	3.11432
291.084	0.108673	3.13446
292.084	0.108734	3.1134
293.084	0.108765	3.13446
294.084	0.108795	3.11401
295.084	0.108826	3.11523
296.084	0.108887	3.11432
297.084	0.108917	3.11462
298.084	0.108948	3.11432
299.084	0.109009	3.09601
300.084	0.109039	3.13385
301.084	0.10907	3.09509
302.084	0.109131	3.11462