File: Edgar/20230222 (1)/OCP_1_d(2).txt
Time (s)	WE(1).Potential (V)
2.01375	0.000109863
2.11375	0.000109863
2.21375	0.000109863
2.31375	0.000109863
2.41375	0.000109863
2.51375	0.000109863
2.61375	0.000109863
2.71375	0.000109863
2.81375	0.000109863