File: Edgar/20230222 (1)/OCP_1_d.txt
Time (s)	WE(1).Potential (V)
1.77675	0.00010376
1.87675	0.00010376
1.97675	0.00010376
2.07675	0.00010376
2.17675	0.00010376
2.27675	0.00010376
2.37675	0.00010376
2.47675	0.00010376
2.57675	0.00010376