File: Edgar/20230222 (1)/OCP_1_d(1).txt
Time (s)	WE(1).Potential (V)
1.59521	0.285767
1.69521	0.285767
1.79521	0.285767
1.89521	0.285767
1.99521	0.285767
2.09521	0.285767
2.19521	0.285767
2.29521	0.285767
2.39521	0.285767