File: Edgar/20240605/20240605/electrodeposition_pulsed_potential_20240605_A/pulses_5000_to_6000.txt
Time (s)	WE(1).Potential (V)	WE(1).Current (A)
3743.89	-0.497955	-0.019046
3746.25	0.603973	0.00020813
3748.57	0.60498	6.34766e-06
3750.91	-0.498047	-0.0162903
3753.27	0.605042	7.63245e-05
3755.59	0.604126	1.33362e-05
3757.93	-0.498474	-0.0140411
3760.29	0.605286	4.48914e-05
3762.61	0.604706	8.8501e-06
3764.95	-0.499359	-0.0121979
3767.31	0.605225	3.38135e-05
3769.63	0.605255	3.50952e-06
3771.99	-0.000448608	0.00434967
3774.33	0.60498	2.8595e-05
3776.65	0.604248	1.12305e-05
3779.01	-8.8501e-05	0.0032547
3781.35	0.604523	2.4292e-05
3783.67	0.604553	7.87354e-06
3786.03	0.000823975	0.00246002
3788.37	0.605164	1.69983e-05
3790.69	0.604126	1.06812e-05
3793.05	0.000469971	0.00185638
3795.39	0.605255	1.13525e-05
3797.71	0.60495	5.67627e-06
3800.09	0.603119	0.0173492
3802.41	0.604919	1.3855e-05
3804.73	0.604095	9.24683e-06
3807.11	0.603638	0.0138916
3809.43	0.604034	1.68152e-05
3811.75	0.605316	9.15527e-08
3814.13	0.604462	0.00854797
3816.45	0.604736	1.14441e-05
3818.79	-0.499084	-0.0191193
3821.15	0.605438	0.000227905
3823.47	0.605133	9.30786e-06
3825.81	-0.499176	-0.016333
3828.17	0.605103	7.77893e-05
3830.49	0.604004	1.41296e-05
3832.83	-0.499451	-0.0140991
3835.19	0.604034	5.62134e-05
3837.51	0.605133	5.85937e-06
3839.85	-0.499237	-0.012265
3842.21	0.604553	3.82385e-05
3844.53	0.605377	3.14331e-06
3846.89	0.000183105	0.0042923
3849.23	0.603973	3.35388e-05
3851.55	0.604004	1.11389e-05
3853.91	-6.40869e-05	0.00322632
3856.25	0.604248	2.73132e-05
3858.57	0.605255	2.53296e-06
3860.93	0.000839233	0.00244049
3863.27	0.605347	1.61743e-05
3865.59	0.604126	9.21631e-06
3867.95	0.000299072	0.00184601
3870.29	0.605072	1.45874e-05
3872.61	0.604126	1.00098e-05
3874.99	0.603119	0.0173706
3877.31	0.604034	2.08435e-05
3879.63	0.603973	1.02844e-05
3882.01	0.603455	0.0139648
3884.33	0.604767	1.21155e-05
3886.65	0.604614	5.85937e-06
3889.03	0.603699	0.00887756
3891.35	0.604736	1.05896e-05
3893.69	-0.499023	-0.0191772
3896.05	0.604065	0.000264313
3898.37	0.604279	1.40076e-05
3900.71	-0.499359	-0.0163971
3903.07	0.604858	8.30383e-05
3905.39	0.603973	1.48621e-05
3907.73	-0.498199	-0.0141815
3910.09	0.604614	5.4718e-05
3912.41	0.604156	1.22681e-05
3914.75	-0.499512	-0.0123413
3917.11	0.605042	3.58276e-05
3919.43	0.604126	1.22681e-05
3921.79	-0.000463867	0.00424072
3924.13	0.604034	3.58276e-05
3926.45	0.60437	9.46045e-06
3928.81	0.000622559	0.00318024
3931.15	0.604156	2.92053e-05
3933.47	0.60498	5.46265e-06
3935.83	0.000683594	0.00240997
3938.17	0.60434	2.31018e-05
3940.49	0.604156	9.33838e-06
3942.85	0.000274658	0.00182312
3945.19	0.604919	1.57471e-05
3947.51	0.605194	2.80762e-06
3949.89	0.603241	0.0174042
3952.21	0.604156	1.90735e-05
3954.53	0.604218	8.14819e-06
3956.91	0.603577	0.0140289
3959.23	0.604065	1.7395e-05
3961.55	0.604309	9.42993e-06
3963.93	0.604279	0.00915222
3966.25	0.604675	1.04675e-05
3968.59	-0.497925	-0.0192322
3970.95	0.604095	0.000294617
3973.27	0.604187	1.48621e-05
3975.61	-0.498077	-0.0164612
3977.97	0.604889	8.71887e-05
3980.29	0.604828	8.14819e-06
3982.63	-0.499084	-0.0142487
3984.99	0.604065	5.87769e-05
3987.31	0.605194	4.15039e-06
3989.65	-0.498352	-0.0124298
3992.01	0.603973	4.40063e-05
3994.33	0.604156	1.20239e-05
3996.69	-0.00032959	0.00419098
3999.03	0.604645	3.08228e-05
4001.35	0.604858	7.2937e-06
4003.71	0.000897217	0.00314392
4006.05	0.604095	2.98462e-05
4008.37	0.604523	8.45337e-06
4010.73	0.000534058	0.00238739
4013.07	0.60437	2.20947e-05
4015.39	0.605164	1.49536e-06
4017.75	0.000582886	0.00180573
4020.09	0.605164	1.51672e-05
4022.41	0.604279	9.00269e-06
4024.79	0.603027	0.0174286
4027.11	0.604279	1.69678e-05
4029.43	0.60434	9.06372e-06
4031.81	0.603638	0.0140808
4034.13	0.605194	9.97925e-06
4036.45	0.605286	7.62939e-07
4038.83	0.604706	0.00930481
4041.15	0.604492	1.28479e-05
4043.49	-0.498749	-0.01922
4045.85	0.605194	0.000312012
4048.17	0.604858	1.02844e-05
4050.51	-0.498505	-0.0164978
4052.87	0.605347	8.77075e-05
4055.19	0.605011	6.68335e-06
4057.53	-0.498138	-0.0143005
4059.89	0.60495	5.2948e-05
4062.21	0.604858	9.552e-06
4064.55	-0.498444	-0.0124817
4066.91	0.604462	4.17786e-05
4069.23	0.604187	1.2085e-05
4071.59	4.57764e-05	0.00412872
4073.93	0.604584	3.35388e-05
4076.25	0.605316	2.0752e-06
4078.61	-0.000180054	0.00311676
4080.95	0.604797	2.46582e-05
4083.27	0.605255	2.31934e-06
4085.63	-0.000341797	0.00237579
4087.97	0.604706	2.11792e-05
4090.29	0.604095	8.97217e-06
4092.65	0.00032959	0.00179871
4094.99	0.604919	1.78223e-05
4097.31	0.604248	7.78198e-06
4099.69	0.60434	0.01745
4102.01	0.604034	1.95007e-05
4104.33	0.603973	8.97217e-06
4106.71	0.603394	0.0141418
4109.03	0.604034	1.7334e-05
4111.35	0.605347	2.74658e-07
4113.73	0.604095	0.00946045
4116.05	0.605347	7.93457e-06
4118.39	-0.498871	-0.0192657
4120.75	0.605255	0.000335052
4123.07	0.605347	6.74438e-06
4125.41	-0.498383	-0.0165466
4127.77	0.605255	9.24377e-05
4130.09	0.605316	5.98145e-06
4132.43	-0.499573	-0.0143585
4134.79	0.604004	5.95703e-05
4137.11	0.605103	6.95801e-06
4139.45	-0.498383	-0.0125427
4141.81	0.605225	3.54919e-05
4144.13	0.605255	5.12695e-06
4146.49	-0.000360107	0.00408356
4148.83	0.604187	3.54614e-05
4151.15	0.604401	7.75146e-06
4153.51	-0.000100708	0.00308014
4155.85	0.605255	2.07825e-05
4158.17	0.604218	1.00403e-05
4160.53	-0.000357056	0.00235443
4162.87	0.604858	2.005e-05
4165.19	0.604462	7.59888e-06
4167.55	-0.000161743	0.00177704
4169.89	0.605286	1.46484e-05
4172.21	0.604218	8.88062e-06
4174.59	0.604401	0.017453
4176.91	0.604919	1.17798e-05
4179.23	0.604034	1.08337e-05
4181.61	0.60437	0.0141907
4183.93	0.605225	9.39941e-06
4186.25	0.604401	5.15747e-06
4188.63	0.604889	0.0096405
4190.95	0.605133	9.12476e-06
4193.29	-0.499054	-0.0193054
4195.65	0.605347	0.000369965
4197.97	0.605255	5.95093e-06
4200.31	-0.49884	-0.0166077
4202.67	0.605164	9.69238e-05
4204.99	0.605255	6.7749e-06
4207.33	-0.498077	-0.0144165
4209.69	0.604889	5.63354e-05
4212.01	0.604523	8.81958e-06
4214.35	-0.499084	-0.012616
4216.71	0.603943	4.51965e-05
4219.03	0.604767	4.73022e-06
4221.39	0.000784302	0.00403717
4223.73	0.605377	2.6886e-05
4226.05	0.604156	9.12476e-06
4228.41	-0.000134277	0.00304565
4230.75	0.604218	3.10974e-05
4233.07	0.605316	2.56348e-06
4235.43	-0.000338745	0.00233337
4237.77	0.604401	2.29797e-05
4240.09	0.604584	4.79126e-06
4242.45	-0.000280762	0.00177307
4244.79	0.604797	1.79443e-05
4247.11	0.605225	1.5564e-06
4249.49	0.60379	0.0175171
4251.81	0.604919	1.49536e-05
4254.13	0.604401	7.65991e-06
4256.51	0.603882	0.014212
4258.83	0.604553	1.40686e-05
4261.15	0.604248	6.7749e-06
4263.53	0.603607	0.00968628
4265.85	0.605225	7.17163e-06
4268.19	-0.498993	-0.0192932
4270.55	0.604858	0.000382599
4272.87	0.603973	1.66321e-05
4275.21	-0.499329	-0.0166046
4277.57	0.604065	0.000105865
4279.89	0.605225	5.67627e-06
4282.23	-0.499146	-0.0144592
4284.59	0.605347	5.31616e-05
4286.91	0.605286	5.00488e-06
4289.25	-0.499512	-0.0126617
4291.61	0.605255	3.74451e-05
4293.93	0.605164	5.00488e-06
4296.29	-0.000427246	0.00403717
4298.63	0.604187	3.46069e-05
4300.95	0.604431	9.82666e-06
4303.31	0.00032959	0.00303558
4305.65	0.604095	3.0365e-05
4307.97	0.604614	6.53076e-06
4310.33	0.000317383	0.00230896
4312.67	0.605194	1.9104e-05
4314.99	0.605286	2.16675e-06
4317.35	0.000897217	0.00175232
4319.69	0.604828	1.5564e-05
4322.01	0.604309	5.98145e-06
4324.39	0.603333	0.0175507
4326.71	0.604919	1.3855e-05
4329.03	0.605042	2.10571e-06
4331.41	0.603485	0.014267
4333.73	0.605042	1.11694e-05
4336.05	0.604919	4.05884e-06
4338.43	0.604279	0.00981445
4340.75	0.604797	1.24207e-05
4343.09	-0.497894	-0.0193604
4345.45	0.604492	0.000420685
4347.77	0.605225	7.20215e-06
4350.11	-0.498016	-0.0166656
4352.47	0.604431	0.000106995
4354.79	0.605225	6.65283e-06
4357.13	-0.498077	-0.0145233
4359.49	0.604248	6.19202e-05
4361.81	0.60498	7.2937e-06
4364.15	-0.499542	-0.0127258
4366.51	0.605072	4.10461e-05
4368.83	0.604828	8.94165e-06
4371.19	0.000167847	0.00398895
4373.53	0.604126	3.6377e-05
4375.85	0.604706	8.05664e-06
4378.21	0.000479126	0.00300507
4380.55	0.604828	2.40784e-05
4382.87	0.605133	3.2959e-06
4385.23	0.000598145	0.00228302
4387.57	0.605042	1.93481e-05
4389.89	0.604126	1.08337e-05
4392.25	0.000588989	0.00174072
4394.59	0.605347	1.44043e-05
4396.91	0.605194	1.86157e-06
4399.29	0.603424	0.0175659
4401.61	0.604156	1.98975e-05
4403.93	0.605286	1.43433e-06
4406.31	0.603973	0.0143036
4408.63	0.605194	1.06201e-05
4410.95	0.604462	7.8125e-06
4413.33	0.604828	0.00994873
4415.65	0.605286	9.27734e-06
4417.99	-0.499146	-0.019342
4420.35	0.605133	0.000449158
4422.67	0.605164	8.17871e-06
4425.01	-0.498901	-0.016687
4427.37	0.604218	0.000112701
4429.69	0.604492	1.32141e-05
4432.03	-0.498505	-0.014563
4434.39	0.604218	6.30188e-05
4436.71	0.604126	1.13831e-05
4439.05	-0.499451	-0.0127655
4441.41	0.605347	3.8269e-05
4443.73	0.604431	9.97925e-06
4443.85	0.604828	3.93677e-06