File: Edgar/20240605/20240605/electrodeposition_pulsed_potential_20240605_A/pulses_1000_to_2000.txt
Time (s)	WE(1).Potential (V)	WE(1).Current (A)
893.839	-0.498291	-0.0149261
896.199	0.604462	3.29285e-05
898.519	0.604309	7.01904e-06
900.859	-0.499725	-0.01015625
903.219	0.605225	1.84021e-05
905.539	0.605347	-2.10571e-06
907.879	-0.498566	-0.00757446
910.239	0.605042	1.51367e-05
912.559	0.605377	-2.68555e-06
914.899	-0.499725	-0.00601715
917.259	0.604034	1.84937e-05
919.579	0.603943	7.93457e-06
921.939	0.000762939	0.00684265
924.279	0.604156	1.76392e-05
926.599	0.605164	-1.64795e-06
928.959	-0.000402832	0.00411987
931.299	0.604218	1.12e-05
933.619	0.60437	5.58472e-06
935.979	-0.000112915	0.00239044
938.319	0.604187	1.2146e-05
940.639	0.605347	-2.44141e-06
942.999	-0.000198364	0.00136719
945.339	0.605042	4.91333e-06
947.659	0.60498	-2.13623e-07
950.039	0.603577	0.0114655
952.359	0.605316	1.58691e-06
954.679	0.604797	3.72314e-06
957.059	0.604126	0.00011557
959.379	0.605011	3.11279e-06
961.699	0.604279	2.56348e-06
964.079	0.604858	5.2124e-05
966.399	0.604584	6.86646e-06
968.739	-0.499176	-0.0152863
971.099	0.605042	3.23181e-05
973.419	0.604584	4.60815e-06
975.759	-0.499054	-0.0107086
978.119	0.605255	1.98364e-05
980.439	0.60498	1.2207e-06
982.779	-0.499054	-0.00803223
985.139	0.605316	1.46484e-05
987.459	0.605347	-1.2207e-06
989.799	-0.499847	-0.00639862
992.159	0.605194	1.19629e-05
994.479	0.605255	-1.61743e-06
996.839	-0.00038147	0.00687256
999.179	0.605133	8.54492e-06
1001.5	0.605286	-2.28882e-06
1003.86	0.000228882	0.004263
1006.2	0.605103	8.08716e-06
1008.52	0.605377	-2.01416e-06
1010.88	0.000149536	0.00257141
1013.22	0.604248	1.14441e-05
1015.54	0.604462	6.62231e-06
1017.9	0.000930786	0.00151855
1020.24	0.605347	2.99072e-06
1022.56	0.603882	6.43921e-06
1024.94	0.604095	0.012326
1027.26	0.605103	2.71606e-06
1029.58	0.604034	6.89697e-06
1031.96	0.604919	0.000125549
1034.28	0.604919	4.30298e-06
1036.6	0.605347	-2.92969e-06
1038.98	0.604584	6.13098e-05
1041.3	0.604156	1.01318e-05
1043.64	-0.499481	-0.0156982
1046	0.603912	4.02222e-05
1048.32	0.605194	1.49536e-06
1050.66	-0.49939	-0.0111725
1053.02	0.604156	2.99683e-05
1055.34	0.604126	8.20923e-06
1057.68	-0.49884	-0.00845947
1060.04	0.605286	1.52283e-05
1062.36	0.605011	2.16675e-06
1064.7	-0.498596	-0.00675751
1067.06	0.604095	2.10266e-05
1069.38	0.60437	3.75366e-06
1071.74	-0.000442505	0.00686188
1074.08	0.605255	9.46045e-06
1076.4	0.605286	-1.31226e-06
1078.76	0.000213623	0.00436523
1081.1	0.605255	6.53076e-06
1083.42	0.604309	7.2937e-06
1085.78	0.000280762	0.00269928
1088.12	0.604095	1.50146e-05
1090.44	0.60434	2.13623e-06
1092.8	-0.000152588	0.00165039
1095.14	0.605347	3.14331e-06
1097.46	0.605255	-1.09863e-06
1099.84	0.603546	0.0129974
1102.16	0.605133	2.34985e-06
1104.48	0.604034	6.43921e-06
1106.86	0.605408	0.00014151
1109.18	0.604614	8.57544e-06
1111.5	0.604279	5.09644e-06
1113.88	0.604767	6.30798e-05
1116.2	0.604919	3.63159e-06
1118.54	-0.498535	-0.0160583
1120.9	0.605377	3.40881e-05
1123.22	0.604279	7.59888e-06
1125.56	-0.498993	-0.0115997
1127.92	0.603973	3.22266e-05
1130.24	0.605072	1.43433e-06
1132.58	-0.49942	-0.00883484
1134.94	0.60498	2.09656e-05
1137.26	0.604797	2.83813e-06
1139.6	-0.498566	-0.00707703
1141.96	0.604614	1.73645e-05
1144.28	0.604309	5.43213e-06
1146.64	0.000695801	0.00682922
1148.98	0.604065	1.80969e-05
1151.3	0.604828	3.44849e-06
1153.66	0.000775146	0.00443237
1156	0.604034	1.73645e-05
1158.32	0.604065	8.45337e-06
1160.68	0.000701904	0.00281494
1163.02	0.604065	1.52893e-05
1165.34	0.604156	6.34766e-06
1167.7	-4.57764e-05	0.00176697
1170.04	0.604919	8.3313e-06
1172.36	0.604431	3.75366e-06
1174.74	0.603363	0.0134979
1177.06	0.604858	6.95801e-06
1179.38	0.604919	-9.46045e-07
1181.76	0.604279	0.000169769
1184.08	0.605255	3.05176e-06
1186.4	0.604126	5.34058e-06
1188.78	0.605225	6.45447e-05
1191.1	0.605133	3.26538e-06
1193.44	-0.499115	-0.0163239
1195.8	0.605316	3.8147e-05
1198.12	0.604126	6.04248e-06
1200.46	-0.498627	-0.0119629
1202.82	0.605225	2.45667e-05
1205.14	0.604126	8.02612e-06
1207.48	-0.498474	-0.00918579
1209.84	0.604492	2.40479e-05
1212.16	0.604553	5.15747e-06
1214.5	-0.49881	-0.00737732
1216.86	0.604126	2.27661e-05
1219.18	0.604065	9.24683e-06
1221.54	-0.000521851	0.00678284
1223.88	0.603973	1.62964e-05
1226.2	0.605255	-1.06812e-06
1228.56	-0.000436401	0.00447662
1230.9	0.605469	7.32422e-06
1233.22	0.604156	6.74438e-06
1235.58	0.000796509	0.00288605
1237.92	0.605255	6.2561e-06
1240.24	0.604736	1.98364e-06
1242.6	0.000686646	0.00183624
1244.94	0.605347	5.09644e-06
1247.26	0.60437	4.57764e-06
1249.64	0.603333	0.0139038
1251.96	0.604279	1.00708e-05
1254.28	0.605377	-1.7395e-06
1256.66	0.604126	0.000195801
1258.98	0.605286	2.01416e-06
1261.3	0.605225	-7.32422e-07
1263.68	0.605316	6.98242e-05
1266	0.605347	1.98364e-06
1268.34	-0.498627	-0.0165833
1270.7	0.605072	4.12292e-05
1273.02	0.604584	6.13403e-06
1275.36	-0.498932	-0.0123047
1277.72	0.605286	2.7771e-05
1280.04	0.605316	6.10352e-07
1282.38	-0.498718	-0.00951233
1284.74	0.604462	2.31934e-05
1287.06	0.604095	7.59888e-06
1289.4	-0.499786	-0.00766296
1291.76	0.604584	2.01416e-05
1294.08	0.604187	7.14111e-06
1296.44	0.000793457	0.00671753
1298.78	0.604034	1.9989e-05
1301.1	0.604218	8.91113e-06
1303.46	-7.93457e-05	0.00449921
1305.8	0.604462	1.44043e-05
1308.12	0.605408	-1.64795e-06
1310.48	-0.000485229	0.00295197
1312.82	0.605316	6.71387e-06
1315.14	0.604919	1.52588e-06
1317.5	-6.10352e-06	0.00190796
1319.84	0.60498	7.26318e-06
1322.16	0.605408	-2.86865e-06
1324.54	0.603851	0.0142395
1326.86	0.604431	9.70459e-06
1329.18	0.604004	5.46265e-06
1331.56	0.604828	0.000235046
1333.88	0.604065	1.26038e-05
1336.2	0.604553	1.43433e-06
1338.58	0.605286	7.53174e-05
1340.9	0.605133	3.54004e-06
1343.24	-0.498383	-0.0168121
1345.6	0.604187	4.91333e-05
1347.92	0.605133	2.96021e-06
1350.26	-0.49826	-0.0126038
1352.62	0.60498	3.12195e-05
1354.94	0.605438	2.0752e-06
1357.28	-0.499664	-0.0098053
1359.64	0.60434	2.78931e-05
1361.96	0.605286	-8.8501e-07
1364.3	-0.498749	-0.00792542
1366.66	0.604828	1.92261e-05
1368.98	0.604218	6.04248e-06
1371.34	-8.8501e-05	0.00664825
1373.68	0.604767	1.41602e-05
1376	0.605255	0
1378.36	-0.000402832	0.0044986
1380.7	0.605408	8.69751e-06
1383.02	0.604218	6.74438e-06
1385.38	-6.10352e-06	0.002995
1387.72	0.605042	7.23267e-06
1390.04	0.60498	1.0376e-06
1392.4	2.13623e-05	0.00196381
1394.74	0.604919	6.31714e-06
1397.06	0.604279	6.22559e-06
1399.44	0.603394	0.0145416
1401.76	0.604095	1.39465e-05
1404.08	0.605225	-1.12915e-06
1406.46	0.60498	0.000342285
1408.78	0.605316	4.76074e-06
1411.1	0.60434	4.57764e-06
1413.48	0.604767	7.94983e-05
1415.8	0.604858	3.54004e-06
1418.14	-0.498016	-0.0170349
1420.5	0.605133	4.57458e-05
1422.82	0.604034	1.08643e-05
1425.16	-0.498993	-0.0128937
1427.52	0.605164	2.88391e-05
1429.84	0.604309	7.23267e-06
1432.18	-0.498413	-0.0101105
1434.54	0.605255	2.0874e-05
1436.86	0.604858	3.38745e-06
1439.2	-0.499023	-0.00818787
1441.56	0.604675	2.1637e-05
1443.88	0.605194	7.62939e-07
1446.24	0.00027771	0.00659393
1448.58	0.604187	2.14844e-05
1450.9	0.605225	-4.27246e-07
1453.26	0.00045166	0.0044928
1455.6	0.604675	1.10779e-05
1457.92	0.604523	5.24902e-06
1460.28	0.000814819	0.00301636
1462.62	0.605011	7.04956e-06
1464.94	0.605042	6.10352e-08
1467.3	0.000854492	0.00199982
1469.64	0.604248	1.08948e-05
1471.96	0.604858	2.53296e-06
1474.34	0.603851	0.014798
1476.66	0.604919	9.30786e-06
1478.98	0.604736	1.86157e-06
1481.36	0.604523	0.00121185
1483.68	0.605072	3.26538e-06
1486	0.604095	5.64575e-06
1488.38	0.604431	8.59375E-05
1490.7	0.605438	2.38037e-06
1493.04	-0.498199	-0.0172302
1495.4	0.605164	4.64172e-05
1497.72	0.605347	1.52588e-07
1500.06	-0.498505	-0.0131775
1502.42	0.604614	3.42102e-05
1504.74	0.605408	1.89209e-06
1507.08	-0.499664	-0.0103699
1509.44	0.605164	2.21558e-05
1511.76	0.605438	2.74658e-07
1514.1	-0.498688	-0.00844421
1516.46	0.604279	2.4292e-05
1518.78	0.604462	8.91113e-06
1521.14	-0.000210571	0.00650177
1523.48	0.604248	1.96228e-05
1525.8	0.604126	6.19507e-06
1528.16	0.000482178	0.00446533
1530.5	0.605194	1.16272e-05
1532.82	0.603973	6.95801e-06
1535.18	0.000564575	0.00302063
1537.52	0.604736	1.16882e-05
1539.84	0.604065	9.46045e-06
1542.2	0.000796509	0.00202362
1544.54	0.604767	9.33838e-06
1546.86	0.604004	6.5918e-06
1549.24	0.604584	0.0150116
1551.56	0.605347	4.73022e-06
1553.88	0.604034	7.87354e-06
1556.26	0.605896	0.00527252
1558.58	0.604767	5.79834e-06
1560.9	0.605286	-1.95313e-06
1563.28	0.604095	9.27429e-05
1565.6	0.604187	1.12e-05
1567.94	-0.499207	-0.0174042
1570.3	0.604675	5.32532e-05
1572.62	0.604218	9.91821e-06
1574.96	-0.499542	-0.0134064
1577.32	0.605103	3.36914e-05
1579.64	0.604095	1.06201e-05
1581.98	-0.498413	-0.0106415
1584.34	0.604706	2.56958e-05
1586.66	0.604095	8.94165e-06
1589	-0.499634	-0.00867615
1591.36	0.605286	1.71204e-05
1593.68	0.604065	9.49097e-06
1593.8	0.60434	7.04956e-06