File: Edgar/20240605/20240605/electrodeposition_pulsed_potential_20240605_A/pulses_0_to_1000.txt
Time (s)	WE(1).Potential (V)	WE(1).Current (A)
181.681	-0.499359	-0.00259247
184.041	0.604004	8.39233e-06
186.361	0.60498	-3.66211e-06
188.701	-0.499786	-0.00196136
191.061	0.605316	-2.89917e-06
193.381	0.605133	-4.48608e-06
195.721	-0.499664	-0.0019104
198.081	0.605103	-2.38037e-06
200.401	0.604401	1.06812e-06
202.741	-0.500061	-0.00190765
205.101	0.604065	4.97437e-06
207.421	0.604462	1.49536e-06
209.781	-0.000326538	1.44653e-05
212.121	0.60495	-9.46045e-07
214.441	0.605469	-6.50024e-06
216.801	-7.01904e-05	-4.79431e-05
219.141	0.604431	3.54004e-06
221.461	0.604126	2.74658e-06
223.821	-0.00012207	-5.74341e-05
226.161	0.604736	-1.61743e-06
228.481	0.605316	-5.58472e-06
230.841	0.000863647	-6.82373e-05
233.181	0.604553	3.05176e-08
235.501	0.605316	-6.073e-06
237.881	0.605408	3.45459e-05
240.201	0.604218	3.60107e-06
242.521	0.604492	3.96729e-07
244.901	0.604553	1.59607e-05
247.221	0.604645	-4.27246e-07
249.541	0.605194	-5.79834e-06
251.921	0.605042	7.41577e-06
254.241	0.605347	-4.54712e-06
256.581	-0.49884	-0.00330475
258.941	0.604187	9.12476e-06
261.261	0.605255	-4.66919e-06
263.601	-0.499878	-0.00252289
265.961	0.605225	-3.05176e-08
268.281	0.604309	2.44141e-06
270.621	-0.499817	-0.00236359
272.981	0.605133	3.35693e-07
275.301	0.605377	-6.65283e-06
277.641	-0.499878	-0.00230194
280.001	0.604462	1.2207e-06
282.321	0.604095	4.02832e-06
284.681	-0.000112915	0.000848083
287.021	0.605316	-2.86865e-06
289.341	0.604248	3.2959e-06
291.701	-0.000463867	-2.04468e-06
294.041	0.604706	1.2207e-06
296.361	0.604736	-1.43433e-06
298.721	0.000439453	-7.87354e-05
301.061	0.604919	-3.35693e-07
303.381	0.604919	-2.99072e-06
305.741	0.000463867	-9.2865e-05
308.081	0.605194	-4.57764e-06
310.401	0.605164	-6.01196e-06
312.781	0.604614	6.57654e-05
315.101	0.605408	-3.60107e-06
317.421	0.604187	1.64795e-06
319.801	0.604767	2.13318e-05
322.121	0.604218	3.20435e-06
324.441	0.60437	9.46045e-07
326.821	0.60498	1.23291e-05
329.141	0.604126	4.76074e-06
331.481	-0.499939	-0.0052655
333.841	0.605194	5.82886e-06
336.161	0.604828	-3.05176e-06
338.501	-0.499084	-0.0032785
340.861	0.604095	1.15662e-05
343.181	0.604065	3.35693e-06
345.521	-0.498688	-0.00282532
347.881	0.604126	8.91113e-06
350.201	0.604919	-1.80054e-06
352.541	-0.498932	-0.00267181
354.901	0.605316	-2.44141e-07
357.221	0.605408	-4.82178e-06
359.581	0.000790405	0.00254303
361.921	0.603973	8.36182e-06
364.241	0.604645	-1.83105e-07
366.601	0.000402832	0.000348114
368.941	0.60498	8.54492e-07
371.261	0.605164	-4.15039e-06
373.621	0.000500488	-2.00195e-05
375.961	0.604919	9.15527e-07
378.281	0.604156	1.64795e-06
380.641	5.79834e-05	-9.12476e-05
382.981	0.605011	-2.04468e-06
385.301	0.605225	-4.18091e-06
387.681	0.604248	9.39026e-05
390.001	0.604065	4.73022e-06
392.321	0.604584	-1.00708e-06
394.701	0.605286	2.88086e-05
397.021	0.604034	5.15747e-06
399.341	0.604675	-2.53296e-06
401.721	0.605316	1.49536e-05
404.041	0.603973	6.073e-06
406.381	-0.499786	-0.00743591
408.741	0.604675	1.52588e-05
411.061	0.605011	-9.76562e-07
413.401	-0.499969	-0.00431335
415.761	0.605286	4.36401e-06
418.081	0.604279	3.66211e-06
420.421	-0.499573	-0.00340515
422.781	0.604492	7.41577e-06
425.101	0.605194	-4.48608e-06
427.441	-0.499969	-0.00307037
429.801	0.605347	1.12915e-06
432.121	0.60437	1.31226e-06
434.481	0.000656128	0.00410889
436.821	0.604431	6.89697e-06
439.141	0.605347	-4.66919e-06
441.501	0.000793457	0.00105774
443.841	0.604462	6.22559e-06
446.161	0.604065	3.66211e-06
448.521	0.000231934	0.00022345
450.861	0.604401	5.37109e-06
453.181	0.605408	-5.7373e-06
455.541	0.000613403	-2.3407e-05
457.881	0.604248	6.10352e-06
460.201	0.60495	-1.77002e-06
462.581	0.603973	0.000123566
464.901	0.604095	6.2561e-06
467.221	0.604034	4.48608e-06
469.601	0.60495	4.20837e-05
471.921	0.605347	-3.44849e-06
474.241	0.605286	-6.13403e-06
476.621	0.604065	2.74048e-05
478.941	0.604889	-7.32422e-07
481.281	-0.499786	-0.00935059
483.641	0.60437	1.79749e-05
485.961	0.604462	2.47192e-06
488.301	-0.499969	-0.0055069
490.661	0.604187	1.49231e-05
492.981	0.604034	4.73022e-06
495.321	-0.499756	-0.00411133
497.681	0.605133	7.04956e-06
500.001	0.605377	-3.41797e-06
502.341	-0.498932	-0.00354279
504.701	0.604706	6.83594e-06
507.021	0.604248	3.50952e-06
509.381	0.000149536	0.0052063
511.721	0.604889	5.61523e-06
514.042	0.604919	-1.40381e-06
516.402	-0.000292969	0.00187408
518.742	0.605255	9.76562e-07
521.062	0.604034	5.18799e-06
523.422	0.0003479	0.000621338
525.762	0.604492	6.28662e-06
528.082	0.605377	-4.57764e-06
530.442	0.000823975	0.000147217
532.782	0.605347	-2.31934e-06
535.102	0.604736	7.01904e-07
537.482	0.60495	0.000162598
539.802	0.604767	2.56348e-06
542.122	0.605225	-3.9978e-06
544.502	0.604614	5.31616e-05
546.822	0.604889	4.27246e-07
549.142	0.605377	-4.66919e-06
551.522	0.604889	2.45972e-05
553.842	0.605194	-1.95313e-06
556.182	-0.498657	-0.0109375
558.542	0.605316	1.5564e-05
560.862	0.604584	3.54004e-06
563.202	-0.499634	-0.0066687
565.562	0.604614	1.24207e-05
567.882	0.604828	-5.79834e-07
570.222	-0.499054	-0.00486572
572.582	0.605103	7.99561e-06
574.902	0.604187	4.63867e-06
577.242	-0.499634	-0.00402985
579.602	0.605011	5.92041e-06
581.922	0.604065	5.5542e-06
584.282	-7.01904e-05	0.00591919
586.622	0.604675	6.16455e-06
588.942	0.605133	-1.40381e-06
591.302	-0.000115967	0.0025943
593.642	0.605133	2.83813e-06
595.962	0.605072	-1.12915e-06
598.322	0.000814819	0.00106049
600.662	0.605072	1.52588e-06
602.982	0.604187	5.24902e-06
605.342	-0.00027771	0.00040332
607.682	0.604187	6.46973e-06
610.002	0.605316	-4.45557e-06
612.382	0.604919	0.000234619
614.702	0.60434	4.5166e-06
617.022	0.605103	-2.13623e-06
619.402	0.605225	5.58167e-05
621.722	0.604309	4.24194e-06
624.042	0.604126	4.5166e-06
626.422	0.604065	3.80859e-05
628.742	0.604614	3.05176e-06
631.082	-0.499481	-0.0121765
633.442	0.604523	2.30408e-05
635.762	0.604889	1.64795e-06
638.102	-0.499847	-0.00768433
640.462	0.60434	1.82495e-05
642.782	0.604126	7.62939e-06
645.122	-0.499054	-0.00558289
647.482	0.604675	1.19324e-05
649.802	0.605133	-6.10352e-07
652.142	-0.499329	-0.0045282
654.502	0.604706	8.94165e-06
656.822	0.604279	4.97437e-06
659.182	6.10352e-06	0.0063504
661.522	0.604279	1.14441e-05
663.842	0.604095	5.67627e-06
666.202	-0.000134277	0.00315247
668.542	0.60495	5.79834e-06
670.862	0.604675	5.18799e-07
673.222	-0.000265503	0.00147766
675.562	0.604065	9.91821e-06
677.882	0.605225	-3.2959e-06
680.242	-0.000134277	0.000661926
682.582	0.605225	3.05176e-07
684.902	0.604004	5.15747e-06
687.282	0.605499	0.000840454
689.602	0.604462	6.53076e-06
691.922	0.605408	-4.88281e-06
694.302	0.605377	6.62537e-05
696.622	0.604248	7.17163e-06
698.942	0.605164	-4.18091e-06
701.322	0.605042	3.60718e-05
703.642	0.605255	6.10352e-08
705.982	-0.499329	-0.0132172
708.342	0.604675	2.58179e-05
710.662	0.605286	-1.43433e-06
713.002	-0.498383	-0.00859375
715.362	0.604126	2.39258e-05
717.682	0.604034	7.50732e-06
720.022	-0.499329	-0.00627045
722.382	0.605286	1.02234e-05
724.702	0.605164	-1.46484e-06
727.042	-0.498627	-0.0050235
729.402	0.605072	9.12476e-06
731.722	0.604736	2.41089e-06
734.082	-0.000244141	0.00662354
736.422	0.60495	7.08008e-06
738.742	0.604218	5.5542e-06
741.102	-0.000244141	0.0035672
743.442	0.605255	5.34058e-06
745.762	0.604095	7.93457e-06
748.122	0.000582886	0.00182312
750.462	0.605347	1.43433e-06
752.782	0.604401	2.0752e-06
755.142	0.000308228	0.000903931
757.482	0.605286	1.80054e-06
759.802	0.604156	5.15747e-06
762.182	0.604065	0.00801392
764.502	0.604187	8.20923e-06
766.822	0.603973	5.5542e-06
769.202	0.604492	8.26416e-05
771.522	0.603943	9.552e-06
773.842	0.604553	1.67847e-06
776.222	0.604004	4.74548e-05
778.542	0.604156	8.05664e-06
780.882	-0.499542	-0.0140045
783.242	0.604279	3.01208e-05
785.562	0.604492	3.38745e-06
787.902	-0.49884	-0.00933838
790.262	0.604034	2.51465e-05
792.582	0.605377	-2.41089e-06
794.922	-0.498505	-0.00686523
797.282	0.604126	1.89514e-05
799.602	0.604828	1.31226e-06
801.942	-0.499725	-0.0054538
804.302	0.604126	1.84326e-05
806.622	0.603973	7.47681e-06
808.982	0.000372314	0.00677551
811.322	0.603882	1.56555e-05
813.642	0.605347	-1.98364e-06
816.002	-0.000128174	0.0038736
818.342	0.604889	7.2937e-06
820.662	0.604126	6.28662e-06
823.022	0.00015564	0.00211639
825.362	0.604309	8.8501e-06
827.682	0.605225	-1.2207e-06
830.042	0.000259399	0.00113525
832.382	0.605255	2.80762e-06
834.702	0.605347	-4.27246e-06
837.082	0.603699	0.00989075
839.402	0.60437	7.01904e-06
841.722	0.604492	2.34985e-06
844.102	0.605255	9.1217e-05
846.422	0.605469	-8.8501e-07
848.742	0.605194	-4.08936e-06
851.122	0.605469	4.41895e-05
853.442	0.604004	9.15527e-06
855.782	-0.498169	-0.014624
858.142	0.60498	2.78015e-05
860.462	0.604431	5.00488e-06
862.802	-0.498444	-0.00996704
865.163	0.604218	2.52991e-05
867.483	0.604675	4.57764e-06
869.823	-0.499756	-0.00738159
872.183	0.604065	2.13013e-05
874.503	0.604156	5.95093e-06
876.843	-0.499542	-0.00586273
879.203	0.605133	1.09863e-05
881.523	0.605133	-1.89209e-06
881.643	0.605042	-1.06812e-06