File: Edgar/20240605/20240605/electrodeposition_pulsed_potential_20240605_A/pulses_4000_to_5000.txt
Time (s)	WE(1).Potential (V)	WE(1).Current (A)
3031.43	-0.49823	-0.0187805
3033.79	0.604279	0.000111572
3036.11	0.604034	1.26648e-05
3038.45	-0.498688	-0.015799
3040.81	0.605103	5.77087e-05
3043.13	0.604309	1.0376e-05
3045.47	-0.498199	-0.0133942
3047.83	0.604065	4.59595e-05
3050.15	0.604034	1.20239e-05
3052.49	-0.499115	-0.0114624
3054.85	0.604065	3.68652e-05
3057.17	0.604126	1.08643e-05
3059.53	0.000149536	0.00485016
3061.87	0.604218	2.75574e-05
3064.19	0.604156	9.0332e-06
3066.55	0.000344849	0.00360352
3068.89	0.604736	2.09961e-05
3071.21	0.60434	6.50024e-06
3073.57	0.000637817	0.00268036
3075.91	0.605347	1.37024e-05
3078.23	0.605316	1.06812e-06
3080.59	0.000228882	0.00198853
3082.93	0.605286	1.19019e-05
3085.25	0.604492	7.1106e-06
3087.63	0.603119	0.0170319
3089.95	0.605194	1.14136e-05
3092.27	0.604156	7.56836e-06
3094.65	0.604462	0.0131958
3096.97	0.604218	1.50757e-05
3099.29	0.604156	9.33838e-06
3101.67	0.605255	0.0025351
3103.99	0.604919	1.15051e-05
3106.33	-0.497986	-0.0188507
3108.69	0.604767	0.000114319
3111.01	0.605194	6.04248e-06
3113.35	-0.498596	-0.0158234
3115.71	0.605316	5.65796e-05
3118.03	0.605377	4.57764e-06
3120.37	-0.499481	-0.013443
3122.73	0.605072	4.14429e-05
3125.05	0.605164	5.37109e-06
3127.39	-0.498291	-0.0115387
3129.75	0.604584	3.19824e-05
3132.07	0.604004	9.97925e-06
3134.43	-0.00055542	0.00481445
3136.77	0.604126	3.07007e-05
3139.09	0.605011	4.54712e-06
3141.45	0.00083313	0.00357178
3143.79	0.604431	2.50854e-05
3146.11	0.605286	1.12915e-06
3148.47	-0.000234985	0.00267578
3150.81	0.605011	1.5564e-05
3153.13	0.605011	3.32642e-06
3155.49	0.000827026	0.00198059
3157.83	0.604248	1.76086e-05
3160.15	0.60434	5.46265e-06
3162.53	0.604431	0.0170654
3164.85	0.604553	1.33057e-05
3167.17	0.605042	2.71606e-06
3169.55	0.604675	0.0133026
3171.87	0.604767	1.1322e-05
3174.19	0.603973	8.14819e-06
3176.57	0.604462	0.00376099
3178.89	0.605316	5.98145e-06
3181.23	-0.498962	-0.0188812
3183.59	0.604156	0.000128693
3185.91	0.604309	1.36719e-05
3188.25	-0.498352	-0.0159027
3190.61	0.605011	6.08215e-05
3192.93	0.605286	3.93677e-06
3195.27	-0.498993	-0.0135254
3197.63	0.605103	4.15955e-05
3199.95	0.605377	3.44849e-06
3202.29	-0.499207	-0.0116241
3204.65	0.605164	2.95105e-05
3206.97	0.604187	1.10779e-05
3209.33	0.000769043	0.00473938
3211.67	0.604431	2.88086e-05
3213.99	0.605103	3.75366e-06
3216.35	0.000814819	0.003526
3218.69	0.604126	2.6062e-05
3221.01	0.605011	3.23486e-06
3223.37	0.000964355	0.00263885
3225.71	0.60437	2.02942e-05
3228.03	0.604492	6.34766e-06
3230.39	0.000253296	0.00197052
3232.73	0.603943	2.11792e-05
3235.05	0.604004	1.00708e-05
3237.43	0.603302	0.0171173
3239.75	0.604614	1.45264e-05
3242.07	0.604156	7.96509e-06
3244.45	0.604584	0.0133972
3246.77	0.604858	8.78906e-06
3249.09	0.605042	1.5564e-06
3251.47	0.604492	0.00514282
3253.79	0.604523	1.16882e-05
3256.13	-0.497986	-0.0189362
3258.49	0.604675	0.000135071
3260.81	0.605286	5.5542e-06
3263.15	-0.498077	-0.015979
3265.51	0.604401	6.68335e-05
3267.83	0.604797	7.23267e-06
3270.17	-0.49881	-0.0136139
3272.53	0.604797	4.46472e-05
3274.85	0.605194	3.66211e-06
3277.19	-0.498352	-0.01171875
3279.55	0.605133	3.19214e-05
3281.87	0.605164	4.60815e-06
3284.23	0.000588989	0.0046759
3286.57	0.605286	2.33765e-05
3288.89	0.605255	2.19727e-06
3291.25	0.000622559	0.00348907
3293.59	0.604095	2.7832e-05
3295.91	0.605316	3.84521e-06
3298.27	0.000402832	0.00261108
3300.61	0.604309	2.03552e-05
3302.93	0.605225	1.67847e-06
3305.29	-0.000369263	0.00195831
3307.63	0.603912	2.11792e-05
3309.95	0.604858	6.7749e-06
3312.33	0.603851	0.0171509
3314.65	0.605316	9.91821e-06
3316.97	0.604218	6.89697e-06
3319.35	0.604218	0.0134857
3321.67	0.604126	1.5625e-05
3323.99	0.604065	8.27026e-06
3326.37	0.604309	0.00619385
3328.69	0.604065	1.61133e-05
3331.03	-0.499084	-0.0189667
3333.39	0.605072	0.000143524
3335.71	0.605316	6.53076e-06
3338.05	-0.498383	-0.01604
3340.41	0.604126	7.01294e-05
3342.73	0.604614	7.62939e-06
3345.07	-0.498535	-0.0137024
3347.43	0.604279	5.00488e-05
3349.75	0.604797	7.47681e-06
3352.09	-0.498596	-0.0117981
3354.45	0.605316	3.12195e-05
3356.77	0.604584	7.90405e-06
3359.13	0.000805664	0.00461914
3361.47	0.604065	3.25623e-05
3363.79	0.605255	2.28882e-06
3366.15	0.000308228	0.00345245
3368.49	0.605347	1.87683e-05
3370.81	0.604492	6.86646e-06
3373.17	0.000827026	0.00259155
3375.51	0.605408	1.58386e-05
3377.83	0.604095	9.765625E-06
3380.19	0.000280762	0.00194305
3382.53	0.604462	1.83105e-05
3384.85	0.604462	6.16455e-06
3387.23	0.604401	0.0171875
3389.55	0.604858	1.21765e-05
3391.87	0.604126	7.78198e-06
3394.25	0.603455	0.0135712
3396.57	0.605164	8.63647e-06
3398.89	0.605133	1.15967e-06
3401.27	0.605225	0.00689575
3403.59	0.604584	1.171875E-05
3405.93	-0.498047	-0.0190125
3408.29	0.604797	0.000157684
3410.61	0.604462	9.06372e-06
3412.95	-0.498993	-0.0161011
3415.31	0.604736	7.08313e-05
3417.63	0.604614	1.01929e-05
3419.97	-0.498169	-0.0137817
3422.33	0.605377	4.26636e-05
3424.65	0.605316	3.35693e-06
3426.99	-0.499207	-0.0118958
3429.35	0.604187	4.03748e-05
3431.67	0.605194	4.30298e-06
3434.03	0.000787354	0.00456848
3436.37	0.604248	2.948e-05
3438.69	0.604889	4.5166e-06
3441.05	0.000869751	0.00341675
3443.39	0.605011	2.07825e-05
3445.71	0.603943	1.05896e-05
3448.07	-2.13623e-05	0.00257477
3450.41	0.604034	2.34985e-05
3452.73	0.605286	1.61743e-06
3455.09	-0.000375366	0.00193542
3457.43	0.604065	2.06299e-05
3459.75	0.605255	8.8501e-07
3462.13	0.604126	0.0172089
3464.45	0.604431	1.37939e-05
3466.77	0.605042	4.60815e-06
3469.15	0.60437	0.0136475
3471.47	0.605316	8.27026e-06
3473.79	0.60495	1.92261e-06
3476.17	0.603882	0.0074585
3478.49	0.604858	1.01318e-05
3480.83	-0.498444	-0.0190338
3483.19	0.604553	0.000172791
3485.51	0.604187	1.2146e-05
3487.85	-0.499359	-0.0161407
3490.21	0.604584	7.2876e-05
3492.53	0.604034	1.34888e-05
3494.87	-0.498718	-0.0138458
3497.23	0.604034	5.2002e-05
3499.55	0.604523	9.24683e-06
3501.89	-0.49884	-0.0119598
3504.25	0.604736	3.48206e-05
3506.57	0.605103	4.42505e-06
3508.93	-0.000469971	0.00453491
3511.27	0.604706	2.734375E-05
3513.59	0.605255	2.99072e-06
3515.95	0.000790405	0.00338867
3518.29	0.604309	2.35596e-05
3520.61	0.605164	4.15039e-06
3522.97	0.000811768	0.00255127
3525.31	0.604797	2.03247e-05
3527.63	0.604767	5.15747e-06
3529.99	0.000735474	0.0019165
3532.33	0.605194	1.26038e-05
3534.65	0.604889	2.65503e-06
3537.03	0.60434	0.0172546
3539.35	0.605408	1.0498e-05
3541.67	0.605286	1.7395e-06
3544.05	0.604523	0.0136963
3546.37	0.604218	1.52588e-05
3548.69	0.604553	5.70679e-06
3551.07	0.604004	0.00783081
3553.39	0.604767	9.58252e-06
3555.73	-0.498474	-0.0190704
3558.09	0.604004	0.000187439
3560.41	0.604828	7.1106e-06
3562.75	-0.499359	-0.0161957
3565.11	0.60434	7.44629e-05
3567.43	0.605072	7.04956e-06
3569.77	-0.498322	-0.013916
3572.13	0.605133	4.58374e-05
3574.45	0.605133	4.45557e-06
3576.79	-0.498779	-0.0120361
3579.15	0.604645	3.51257e-05
3581.47	0.605072	4.82178e-06
3583.83	0.000869751	0.00449677
3586.17	0.605316	2.38647e-05
3588.49	0.605225	3.02124e-06
3590.85	0.000308228	0.00336548
3593.19	0.604309	2.46582e-05
3595.51	0.605164	2.44141e-06
3597.87	-5.79834e-05	0.00253723
3600.21	0.604919	1.75171e-05
3602.53	0.605225	1.86157e-06
3604.89	0.000515747	0.00189972
3607.23	0.605194	1.41296e-05
3609.55	0.605103	2.7771e-06
3611.93	0.604401	0.0172943
3614.25	0.605225	1.0437e-05
3616.57	0.604065	8.75854e-06
3618.95	0.603424	0.0137665
3621.27	0.605377	7.41577e-06
3623.59	0.604279	8.48389e-06
3625.97	0.603821	0.00812988
3628.29	0.605316	6.40869e-06
3630.63	-0.499207	-0.0191223
3632.99	0.604126	0.000197784
3635.31	0.60495	9.552e-06
3637.65	-0.499298	-0.0162445
3640.01	0.604034	7.82471e-05
3642.33	0.604645	7.26318e-06
3644.67	-0.499481	-0.0139557
3647.03	0.605255	4.52271e-05
3649.35	0.60495	5.15747e-06
3651.69	-0.498352	-0.0121033
3654.05	0.604126	3.9917e-05
3656.37	0.605194	4.11987e-06
3658.73	0.000796509	0.00444519
3661.07	0.604034	3.35388e-05
3663.39	0.605072	3.87573e-06
3665.75	-0.000204468	0.00333374
3668.09	0.604156	2.771e-05
3670.41	0.605164	3.32642e-06
3672.77	0.00067749	0.00251129
3675.11	0.604767	1.87073e-05
3677.43	0.604004	9.85718e-06
3679.79	-4.88281e-05	0.00189941
3682.13	0.605377	1.28784e-05
3684.45	0.605377	1.0376e-06
3686.83	0.603149	0.0173401
3689.15	0.605316	1.00708e-05
3691.47	0.604736	4.21143e-06
3693.85	0.603546	0.0138214
3696.17	0.604736	1.22681e-05
3698.49	0.604675	4.3335e-06
3700.87	0.603882	0.00815125
3703.19	0.605164	8.5144e-06
3705.53	-0.498932	-0.0190887
3707.89	0.604095	0.000209229
3710.21	0.604401	1.46484e-05
3712.55	-0.499298	-0.016272
3714.91	0.604309	7.81555e-05
3717.23	0.604218	1.26953e-05
3719.57	-0.498901	-0.0140198
3721.93	0.605347	4.51355e-05
3724.25	0.604065	1.2085e-05
3726.59	-0.499115	-0.0121521
3728.95	0.604919	3.78113e-05
3731.27	0.604218	1.24512e-05
3731.39	0.605377	1.12915e-06