File: Edgar/20240605/20240605/electrodeposition_pulsed_potential_20240605_A/pulses_2000_to_3000.txt
Time (s)	WE(1).Potential (V)	WE(1).Current (A)
1606.54	-0.498383	-0.0174683
1608.9	0.605194	5.05371e-05
1611.22	0.60495	4.39453e-06
1613.56	-0.499573	-0.013504
1615.92	0.605042	3.51868e-05
1618.24	0.604156	9.82666e-06
1620.58	-0.498413	-0.0107239
1622.94	0.60437	3.17993e-05
1625.26	0.604309	6.2561e-06
1627.6	-0.498596	-0.0087677
1629.96	0.604065	2.54822e-05
1632.28	0.604004	9.52148e-06
1634.64	0.000579834	0.006362
1636.98	0.605286	1.35803e-05
1639.3	0.60437	7.84302e-06
1641.66	0.000540161	0.00441681
1644	0.604218	1.93481e-05
1646.32	0.605408	-1.98364e-06
1648.68	-0.000512695	0.00304077
1651.02	0.604553	1.37329e-05
1653.34	0.604828	3.41797e-06
1655.7	0.000369263	0.00206116
1658.04	0.604034	1.66016e-05
1660.36	0.604065	7.38525e-06
1662.74	0.603424	0.0152802
1665.06	0.604187	1.28784e-05
1667.38	0.605133	5.49316e-07
1669.76	0.604736	0.0077179
1672.08	0.604462	9.67407e-06
1674.4	0.605286	-2.44141e-06
1676.78	0.605255	9.0332e-05
1679.1	0.605225	3.90625e-06
1681.44	-0.498596	-0.0175415
1683.8	0.605133	5.27039e-05
1686.12	0.604095	1.01929e-05
1688.46	-0.49823	-0.0136597
1690.82	0.604706	3.5553e-05
1693.14	0.604248	1.00098e-05
1695.48	-0.499146	-0.0109131
1697.84	0.605469	2.2583e-05
1700.16	0.605011	3.72314e-06
1702.5	-0.499756	-0.0089447
1704.86	0.605408	1.88904e-05
1707.18	0.605347	1.37329e-06
1709.54	-0.000491333	0.00629639
1711.88	0.605042	1.33972e-05
1714.2	0.605164	1.28174e-06
1716.56	0.000698853	0.00439606
1718.9	0.60437	1.59912e-05
1721.22	0.605042	2.96021e-06
1723.58	0.00088501	0.00304474
1725.92	0.60498	1.08643e-05
1728.24	0.60495	5.58472e-06
1730.6	0.000793457	0.00208282
1732.94	0.604523	1.19324e-05
1735.26	0.60434	4.88281e-06
1737.64	0.603333	0.0154663
1739.96	0.60498	9.18579e-06
1742.28	0.605255	-8.23975e-07
1744.66	0.604279	0.00870972
1746.98	0.605042	5.70679e-06
1749.3	0.604065	6.98853e-06
1751.68	0.604065	0.000106262
1754	0.605377	4.42505e-06
1756.34	-0.499207	-0.017688
1758.7	0.604065	6.17676e-05
1761.02	0.604095	1.19934e-05
1763.36	-0.498199	-0.0138702
1765.72	0.604492	3.84827e-05
1768.04	0.605133	2.53296e-06
1770.38	-0.499268	-0.0111206
1772.74	0.605255	2.64282e-05
1775.06	0.605316	1.19019e-06
1777.4	-0.499786	-0.00914001
1779.76	0.604126	2.79846e-05
1782.08	0.604065	1.04675e-05
1784.44	0.000762939	0.00619202
1786.78	0.605377	1.44348e-05
1789.1	0.604431	5.15747e-06
1791.46	0.000680542	0.00436188
1793.8	0.604279	1.85547e-05
1796.12	0.604248	4.42505e-06
1798.48	-0.000418091	0.00304596
1800.82	0.604797	1.28784e-05
1803.14	0.605347	-6.40869e-07
1805.5	0.000543213	0.00210419
1807.84	0.60434	1.36108e-05
1810.16	0.60434	6.04248e-06
1812.54	0.604187	0.0156281
1814.86	0.604034	1.36719e-05
1817.18	0.604095	7.17163e-06
1819.56	0.603607	0.00938721
1821.88	0.604095	1.30615e-05
1824.2	0.604034	8.66699e-06
1826.58	0.604004	0.000112579
1828.9	0.604004	1.28784e-05
1831.24	-0.499298	-0.017804
1833.6	0.604706	5.896e-05
1835.92	0.605133	3.78418e-06
1838.26	-0.498505	-0.0140503
1840.62	0.605225	3.68652e-05
1842.94	0.604065	9.3689e-06
1845.28	-0.498932	-0.0113129
1847.64	0.604095	3.50037e-05
1849.96	0.605286	1.00708e-06
1852.3	-0.499512	-0.00933838
1854.66	0.604309	2.54517e-05
1856.98	0.605377	1.12915e-06
1859.34	-0.000198364	0.00610565
1861.68	0.604675	1.86157e-05
1864	0.604523	3.90625e-06
1866.36	-0.000283813	0.00432434
1868.7	0.604218	1.77002e-05
1871.02	0.604034	9.61304e-06
1873.38	-0.00012207	0.00303833
1875.72	0.604004	1.80359e-05
1878.04	0.604706	4.11987e-06
1880.4	-0.000161743	0.00211456
1882.74	0.605011	1.00708e-05
1885.06	0.605103	3.05176e-08
1887.44	0.60318	0.0157776
1889.76	0.604797	8.88062e-06
1892.08	0.603973	7.35474e-06
1894.46	0.604919	0.00992432
1896.78	0.60434	1.15356e-05
1899.1	0.604187	6.16455e-06
1901.48	0.605255	0.000109406
1903.8	0.604095	1.22375e-05
1906.14	-0.498016	-0.0179199
1908.5	0.604004	6.67114e-05
1910.82	0.604279	1.06506e-05
1913.16	-0.498779	-0.0142303
1915.52	0.604889	4.10767e-05
1917.84	0.604828	6.2561e-06
1920.18	-0.49942	-0.0115143
1922.54	0.605316	2.80151e-05
1924.86	0.604034	1.02234e-05
1927.2	-0.499695	-0.00952454
1929.56	0.605316	2.01111e-05
1931.88	0.605347	1.00708e-06
1934.24	0.000854492	0.00600037
1936.58	0.60434	2.09045e-05
1938.9	0.605377	6.10352e-07
1941.26	-0.000128174	0.00427002
1943.6	0.604675	1.8158e-05
1945.92	0.605103	2.01416e-06
1948.28	0.000106812	0.00302124
1950.62	0.604034	1.7395e-05
1952.94	0.605286	-3.05176e-08
1955.3	0.000274658	0.00211823
1957.64	0.604279	1.52283e-05
1959.96	0.604523	4.73022e-06
1962.34	0.603668	0.0159119
1964.66	0.60495	9.09424e-06
1966.98	0.604858	2.31934e-06
1969.36	0.604736	0.0103607
1971.68	0.603882	1.40076e-05
1974	0.605255	-1.89209e-06
1976.38	0.605225	0.000118744
1978.7	0.605438	3.41797e-06
1981.04	-0.497986	-0.0180237
1983.4	0.604065	6.8634e-05
1985.72	0.605347	2.59399e-06
1988.06	-0.49942	-0.014389
1990.42	0.604095	4.78516e-05
1992.74	0.605347	2.10571e-06
1995.08	-0.499603	-0.0116913
1997.44	0.605286	2.73132e-05
1999.76	0.604065	9.73511e-06
2002.1	-0.498962	-0.00970154
2004.46	0.605011	2.16675e-05
2006.78	0.604156	9.46045e-06
2009.14	-0.000186157	0.00590973
2011.48	0.60498	1.95007e-05
2013.8	0.605133	2.16675e-06
2016.16	-7.32422e-05	0.00422852
2018.5	0.604034	2.08435e-05
2020.82	0.604218	6.92749e-06
2023.18	-0.000274658	0.00300323
2025.52	0.604218	1.77917e-05
2027.84	0.604523	3.05176e-06
2030.2	0.00057373	0.0021167
2032.54	0.605286	8.11768e-06
2034.86	0.604065	7.93457e-06
2037.24	0.60318	0.0160248
2039.56	0.604767	1.16272e-05
2041.88	0.604034	7.90405e-06
2044.26	0.603638	0.0107819
2046.58	0.604736	1.00708e-05
2048.9	0.604828	1.40381e-06
2051.28	0.604858	0.000133728
2053.6	0.603973	1.36108e-05
2055.94	-0.498749	-0.0181061
2058.3	0.605194	6.24084e-05
2060.62	0.605164	4.05884e-06
2062.96	-0.499359	-0.0145355
2065.32	0.605133	4.27551e-05
2067.64	0.605255	3.57056e-06
2069.98	-0.499054	-0.0118622
2072.34	0.604126	3.83606e-05
2074.66	0.605316	1.67847e-06
2077	-0.498718	-0.00989075
2079.36	0.603973	3.07922e-05
2081.68	0.604736	3.96729e-06
2084.04	0.00015564	0.00581177
2086.38	0.604401	2.27661e-05
2088.7	0.604462	4.97437e-06
2091.06	0.000540161	0.0041745
2093.4	0.605225	1.3031e-05
2095.72	0.605286	-2.44141e-07
2098.08	9.46045e-05	0.00298096
2100.42	0.605225	1.02844e-05
2102.74	0.604095	7.87354e-06
2105.1	-0.000292969	0.00211578
2107.44	0.605164	9.21631e-06
2109.76	0.605408	-3.66211e-07
2112.14	0.603394	0.0161285
2114.46	0.60498	8.30078e-06
2116.78	0.604828	3.96729e-07
2119.16	0.603607	0.0111176
2121.48	0.605011	8.97217e-06
2123.8	0.605438	-1.46484e-06
2126.18	0.605316	0.000142914
2128.5	0.604919	5.64575e-06
2130.84	-0.498871	-0.0182068
2133.2	0.605316	6.52161e-05
2135.52	0.604248	1.17493e-05
2137.86	-0.498138	-0.014679
2140.22	0.605133	4.37012e-05
2142.54	0.604095	1.11084e-05
2144.88	-0.499176	-0.0120392
2147.24	0.604218	3.61023e-05
2149.56	0.605133	5.37109e-06
2151.9	-0.49939	-0.0100494
2154.26	0.604767	2.45361e-05
2156.58	0.605377	1.58691e-06
2158.94	0.000430298	0.00571838
2161.28	0.604614	2.23389e-05
2163.6	0.604065	9.46045e-06
2165.96	0.000485229	0.00412201
2168.3	0.604553	1.95007e-05
2170.62	0.605347	1.31226e-06
2172.98	0.000881958	0.00295593
2175.32	0.604858	1.58997e-05
2177.64	0.605469	-6.71387e-07
2180	0.000775146	0.00209839
2182.34	0.604248	1.66016e-05
2184.66	0.604095	9.24683e-06
2187.04	0.604523	0.0162262
2189.36	0.604889	9.33838e-06
2191.68	0.604004	8.91113e-06
2194.06	0.603485	0.0113983
2196.38	0.60498	8.08716e-06
2198.7	0.605408	-7.32422e-07
2201.08	0.604065	0.000168762
2203.4	0.604034	1.37939e-05
2205.74	-0.49823	-0.0183228
2208.1	0.604736	6.94275e-05
2210.42	0.604889	6.43921e-06
2212.76	-0.499451	-0.0148254
2215.12	0.60437	4.79126e-05
2217.44	0.605072	5.79834e-06
2219.78	-0.499176	-0.0121979
2222.14	0.604034	3.85437e-05
2224.46	0.604492	7.23267e-06
2226.8	-0.498566	-0.0102112
2229.16	0.605438	2.28577e-05
2231.48	0.604004	1.01318e-05
2233.84	-0.000143433	0.00564789
2236.18	0.604492	2.31018e-05
2238.5	0.603973	9.39941e-06
2240.86	-0.000369263	0.00409424
2243.2	0.605286	1.34583e-05
2245.52	0.604095	9.18579e-06
2247.88	-4.27246e-05	0.00294495
2250.22	0.605042	1.31836e-05
2252.54	0.605225	9.46045e-07
2254.9	0.000878906	0.00210175
2257.24	0.605377	7.96509e-06
2259.56	0.604248	6.92749e-06
2261.94	0.604095	0.016333
2264.26	0.605042	8.91113e-06
2266.58	0.604065	6.37817e-06
2268.96	0.60376	0.0116302
2271.28	0.60498	8.42285e-06
2273.6	0.604004	7.75146e-06
2275.98	0.604065	0.000190826
2278.3	0.604675	8.97217e-06
2280.64	-0.498413	-0.0183685
2283	0.603973	7.89795e-05
2285.32	0.604279	8.39233e-06
2287.66	-0.498199	-0.0149506
2290.02	0.605347	4.39453e-05
2292.34	0.604004	1.09253e-05
2294.68	-0.498352	-0.0123352
2297.04	0.605377	3.05481e-05
2299.36	0.604095	1.06506e-05
2301.7	-0.498657	-0.0103485
2304.06	0.604065	3.14941e-05
2306.38	0.604797	6.2561e-06
2306.5	0.604218	7.2937e-06