File: Edgar/20240605/20240605/electrodeposition_pulsed_potential_20240605_A/pulses_3000_to_4000.txt
Time (s)	WE(1).Potential (V)	WE(1).Current (A)
2319.01	-0.498047	-0.0183594
2321.37	0.603973	7.79724e-05
2323.69	0.604004	1.34888e-05
2326.03	-0.499054	-0.014978
2328.39	0.604248	5.078125E-05
2330.71	0.605286	2.47192e-06
2333.05	-0.498596	-0.0123932
2335.41	0.604034	3.97949e-05
2337.73	0.605042	4.69971e-06
2340.07	-0.499115	-0.0104095
2342.43	0.604034	3.16772e-05
2344.75	0.605286	3.02124e-06
2347.11	0.000891113	0.00551392
2349.45	0.605316	1.86462e-05
2351.77	0.605042	3.32642e-06
2354.13	0.000665283	0.00399872
2356.47	0.604401	2.07825e-05
2358.79	0.604126	8.81958e-06
2361.15	-0.000289917	0.00290466
2363.49	0.605347	1.01318e-05
2365.81	0.605225	5.49316e-07
2368.17	0.000430298	0.00208221
2370.51	0.604095	1.82495e-05
2372.83	0.605042	-2.13623e-07
2375.21	0.60318	0.016452
2377.53	0.605255	7.41577e-06
2379.85	0.60498	2.68555e-06
2382.23	0.604706	0.0119019
2384.55	0.604462	1.19324e-05
2386.87	0.605347	-1.83105e-07
2389.25	0.604492	0.000234619
2391.57	0.60495	6.10352e-06
2393.91	-0.498047	-0.0184509
2396.27	0.604828	7.59888e-05
2398.59	0.604492	9.46045e-06
2400.93	-0.49881	-0.0150787
2403.29	0.605103	4.73633e-05
2405.61	0.604065	1.06506e-05
2407.95	-0.498413	-0.0125061
2410.31	0.604095	4.00391e-05
2412.63	0.604919	5.18799e-06
2414.97	-0.499634	-0.0105164
2417.33	0.604706	2.60315e-05
2419.65	0.604095	9.27734e-06
2422.01	0.000524902	0.00545227
2424.35	0.60498	2.05994e-05
2426.67	0.604187	9.70459e-06
2429.03	0.000720215	0.00396729
2431.37	0.60495	1.77307e-05
2433.69	0.604065	9.85718e-06
2436.05	-0.000167847	0.00289551
2438.39	0.605438	1.21765e-05
2440.71	0.605255	3.96729e-07
2443.07	0.000842285	0.00208771
2445.41	0.604279	1.66016e-05
2447.73	0.605408	-1.06812e-06
2450.11	0.603577	0.0165344
2452.43	0.604462	1.4679e-05
2454.75	0.604889	3.26538e-06
2457.13	0.604279	0.0121277
2459.45	0.605347	5.40161e-06
2461.77	0.604828	1.86157e-06
2464.15	0.60498	0.000296783
2466.47	0.604004	1.45569e-05
2468.81	-0.498291	-0.0185089
2471.17	0.604218	8.47473e-05
2473.49	0.60437	9.82666e-06
2475.83	-0.498199	-0.0151917
2478.19	0.604034	5.56946e-05
2480.51	0.604095	1.16577e-05
2482.85	-0.498627	-0.0126465
2485.21	0.604614	3.71704e-05
2487.53	0.604004	1.08032e-05
2489.87	-0.49939	-0.0106659
2492.23	0.605316	2.4353e-05
2494.55	0.604889	4.18091e-06
2496.91	0.000311279	0.00537323
2499.25	0.605164	1.93787e-05
2501.57	0.60495	4.27246e-06
2503.93	0.00083313	0.00392303
2506.27	0.605072	1.84021e-05
2508.59	0.605225	1.49536e-06
2510.95	0.000112915	0.0028717
2513.29	0.605347	1.19019e-05
2515.61	0.604645	5.67627e-06
2517.97	-0.000195313	0.00208282
2520.31	0.604492	1.57471e-05
2522.63	0.605164	1.43433e-06
2525.01	0.604523	0.0166016
2527.33	0.605255	1.09253e-05
2529.65	0.605103	1.31226e-06
2532.03	0.603577	0.0123108
2534.35	0.604462	1.09558e-05
2536.67	0.605408	1.12915e-06
2539.05	0.604156	0.000388489
2541.37	0.604126	1.36414e-05
2543.71	-0.499084	-0.0185608
2546.07	0.605133	7.92236e-05
2548.39	0.604095	1.34277e-05
2550.73	-0.499298	-0.0152924
2553.09	0.604584	5.17273e-05
2555.41	0.604523	8.88062e-06
2557.75	-0.49939	-0.0127472
2560.11	0.604767	3.80249e-05
2562.43	0.604431	9.46045e-06
2564.77	-0.498413	-0.0107819
2567.13	0.60434	2.92358e-05
2569.45	0.604065	1.04675e-05
2571.81	-0.000494385	0.00530426
2574.15	0.604736	2.27661e-05
2576.47	0.604126	9.42993e-06
2578.83	0.000512695	0.00388763
2581.17	0.604095	2.37122e-05
2583.49	0.604156	8.36182e-06
2585.85	0.000894165	0.00284912
2588.19	0.604004	2.19727e-05
2590.51	0.605347	4.88281e-07
2592.87	0.000274658	0.0020752
2595.21	0.604065	1.9043e-05
2597.53	0.604156	1.00098e-05
2599.91	0.604431	0.0166718
2602.23	0.605408	7.78198e-06
2604.55	0.605042	1.52588e-06
2606.93	0.603821	0.0124725
2609.25	0.604401	1.39771e-05
2611.57	0.605286	-1.52588e-07
2613.95	0.605164	0.000479126
2616.27	0.604065	1.41296e-05
2618.61	-0.498749	-0.0186066
2620.97	0.605438	8.19092e-05
2623.29	0.604767	9.61304e-06
2625.63	-0.499329	-0.0153625
2627.99	0.605408	4.85535e-05
2630.31	0.604065	1.23596e-05
2632.65	-0.498322	-0.012851
2635.01	0.604095	4.21753e-05
2637.33	0.604889	5.43213e-06
2639.67	-0.499634	-0.0108765
2642.03	0.603973	3.42407e-05
2644.35	0.604584	6.92749e-06
2646.71	0.000415039	0.00523407
2649.05	0.605377	2.09961e-05
2651.37	0.604065	9.64355e-06
2653.73	-0.000256348	0.00385254
2656.07	0.604401	2.14233e-05
2658.39	0.604309	7.84302e-06
2660.75	-0.000296021	0.00283997
2663.09	0.605011	1.49841e-05
2665.41	0.604889	3.41797e-06
2667.77	0.000827026	0.00207428
2670.11	0.604614	1.2207e-05
2672.43	0.604065	8.30078e-06
2674.81	0.603577	0.0167542
2677.13	0.604126	1.7334e-05
2679.45	0.604065	9.30786e-06
2681.83	0.603729	0.0125977
2684.15	0.604584	1.09253e-05
2686.47	0.604126	6.89697e-06
2688.85	0.605286	0.000582581
2691.17	0.604065	1.61743e-05
2693.51	-0.497986	-0.018634
2695.87	0.60434	9.1217e-05
2698.19	0.604767	8.75854e-06
2700.53	-0.498688	-0.0154449
2702.89	0.604797	5.48706e-05
2705.21	0.604431	1.01318e-05
2707.55	-0.499237	-0.0129395
2709.91	0.604065	4.3396e-05
2712.23	0.604126	1.24512e-05
2714.57	-0.499603	-0.0109894
2716.93	0.604614	3.07617e-05
2719.25	0.604614	5.06592e-06
2721.61	-0.000292969	0.00517242
2723.95	0.604828	2.55127e-05
2726.27	0.605347	1.28174e-06
2728.63	0.000515747	0.00380585
2730.97	0.60434	2.28577e-05
2733.29	0.605133	1.43433e-06
2735.65	0.000588989	0.00280914
2737.99	0.605347	1.27869e-05
2740.31	0.604034	1.0376e-05
2742.67	0.000863647	0.00206177
2745.01	0.60434	1.66931e-05
2747.33	0.604004	1.02234e-05
2749.71	0.603302	0.0168121
2752.03	0.605316	9.552e-06
2754.35	0.604095	7.96509e-06
2756.73	0.604706	0.012738
2759.05	0.605042	9.0332e-06
2761.37	0.604126	8.42285e-06
2763.75	0.604584	0.000761414
2766.07	0.605377	5.79834e-06
2768.41	-0.499115	-0.0186676
2770.77	0.605194	8.91418e-05
2773.09	0.605286	4.45557e-06
2775.43	-0.498077	-0.0155304
2777.79	0.604706	5.65491e-05
2780.11	0.605469	3.05176e-06
2782.45	-0.499542	-0.0130524
2784.81	0.604126	4.39453e-05
2787.13	0.604218	9.94873e-06
2789.47	-0.499725	-0.0111023
2791.83	0.603882	3.59192e-05
2794.15	0.604736	5.52368e-06
2796.51	0.000747681	0.00508698
2798.85	0.605103	2.14539e-05
2801.17	0.605255	2.56348e-06
2803.53	-0.000405884	0.00376404
2805.87	0.605316	1.59302e-05
2808.19	0.605072	3.84521e-06
2810.55	0.000427246	0.0027829
2812.89	0.604797	1.75781e-05
2815.21	0.603943	9.27734e-06
2817.57	-0.000234985	0.00205627
2819.91	0.604309	1.69678e-05
2822.23	0.604462	6.62231e-06
2824.61	0.603363	0.0168701
2826.93	0.604187	1.43127e-05
2829.25	0.605347	-7.32422e-07
2831.63	0.604645	0.0128601
2833.95	0.604309	1.34888e-05
2836.27	0.604645	3.54004e-06
2838.65	0.605255	0.00100616
2840.97	0.604523	1.15662e-05
2843.31	-0.498322	-0.0187317
2845.67	0.604248	0.000101837
2847.99	0.604034	1.40076e-05
2850.33	-0.498413	-0.0156128
2852.69	0.604065	6.2439e-05
2855.01	0.605164	4.54712e-06
2857.35	-0.499481	-0.0131531
2859.71	0.605438	3.57971e-05
2862.03	0.604797	8.69751e-06
2864.37	-0.499115	-0.0112274
2866.73	0.60498	2.90222e-05
2869.05	0.604828	6.28662e-06
2871.41	0.000143433	0.00502106
2873.75	0.604004	2.85339e-05
2876.07	0.60434	7.41577e-06
2878.43	-2.74658e-05	0.00371155
2880.77	0.604736	1.98364e-05
2883.09	0.604309	8.63647e-06
2885.45	0.000827026	0.00274841
2887.79	0.604614	1.87683e-05
2890.11	0.605194	1.52588e-07
2892.47	-0.00039978	0.00203278
2894.81	0.604858	1.34583e-05
2897.13	0.604156	8.5144e-06
2899.51	0.603241	0.0169159
2901.83	0.604492	1.42822e-05
2904.15	0.604126	7.53784e-06
2906.53	0.604767	0.0129822
2908.85	0.605164	1.14136e-05
2911.17	0.604675	5.5542e-06
2913.55	0.604675	0.00138916
2915.87	0.604401	1.19934e-05
2918.21	-0.498535	-0.0187805
2920.57	0.605377	9.83276e-05
2922.89	0.604767	9.61304e-06
2925.23	-0.498169	-0.0157013
2927.59	0.605316	5.3833e-05
2929.91	0.604919	7.23267e-06
2932.25	-0.498444	-0.013269
2934.61	0.604065	4.62646e-05
2936.93	0.60437	9.39941e-06
2939.27	-0.499146	-0.0113373
2941.63	0.60495	3.06702e-05
2943.95	0.604431	8.5144e-06
2946.31	-0.000427246	0.00495148
2948.65	0.60434	2.83813e-05
2950.97	0.605194	2.65503e-06
2953.33	0.000585937	0.00365845
2955.67	0.604279	2.36816e-05
2957.99	0.60434	5.82886e-06
2960.35	-2.74658e-05	0.00272156
2962.69	0.604218	2.09351e-05
2965.01	0.605286	1.15967e-06
2967.37	-0.000387573	0.00201233
2969.71	0.605377	1.15967e-05
2972.03	0.604462	6.65283e-06
2974.41	0.604065	0.0169617
2976.73	0.604767	1.47705e-05
2979.05	0.604065	9.46045e-06
2981.43	0.604614	0.0130798
2983.75	0.605164	9.18579e-06
2986.07	0.604828	2.74658e-06
2988.45	0.604279	0.00191986
2990.77	0.604095	1.48926e-05
2993.11	-0.499298	-0.0188171
2995.47	0.604279	0.000112061
2997.79	0.605133	6.43921e-06
3000.13	-0.499329	-0.0157654
3002.49	0.605377	5.63354e-05
3004.81	0.605194	5.0354e-06
3007.15	-0.499481	-0.0133545
3009.51	0.604767	4.30908e-05
3011.83	0.604675	6.65283e-06
3014.17	-0.499634	-0.0114258
3016.53	0.604034	3.71704e-05
3018.85	0.605347	2.65503e-06
3018.97	0.604187	7.38525e-06