File: Edgar/20240417/20240417/electrodeposition_pulsed_potential_B/data/OCP_3
Time (s)	WE(1).Potential (V)
4156.12	0.570068
4157.12	0.53894
4158.12	0.51178
4159.12	0.488037
4160.12	0.468506
4161.12	0.452667
4162.12	0.440216
4163.12	0.430756
4164.12	0.423737
4165.12	0.41864
4166.12	0.415039
4167.12	0.412567
4168.12	0.410919
4169.12	0.409912
4170.12	0.409424
4171.12	0.409332
4172.12	0.409515
4173.12	0.409943
4174.12	0.410522
4175.12	0.411255
4176.12	0.412048
4177.12	0.412964
4178.12	0.41391
4179.12	0.414917
4180.12	0.415955
4181.12	0.416992
4182.12	0.418121
4183.12	0.41922
4184.12	0.420319
4185.12	0.421448
4186.12	0.422546
4187.12	0.423645
4188.12	0.424774
4189.12	0.425903
4190.12	0.427002
4191.12	0.428101
4192.12	0.429169
4193.12	0.430237
4194.12	0.431305
4195.12	0.432343
4196.12	0.43338
4197.12	0.434418
4198.12	0.435425
4199.12	0.436432
4200.12	0.437378
4201.12	0.438354
4202.12	0.439331
4203.12	0.440247
4204.12	0.441162
4205.12	0.442078
4206.12	0.442993
4207.12	0.443878
4208.12	0.444733
4209.12	0.445587
4210.12	0.446442
4211.12	0.447266
4212.12	0.44809
4213.12	0.448883
4214.12	0.449646
4215.12	0.450439
4216.12	0.451202
4217.12	0.451935
4218.12	0.452667
4219.12	0.4534
4220.12	0.454102
4221.12	0.454803
4222.12	0.455505
4223.12	0.456177
4224.12	0.456848
4225.12	0.45752
4226.12	0.45816
4227.12	0.458832
4228.12	0.459473
4229.12	0.460083
4230.12	0.460724
4231.12	0.461304
4232.12	0.461884
4233.12	0.462463
4234.12	0.463013
4235.12	0.463593
4236.12	0.464142
4237.12	0.464691
4238.12	0.46524
4239.12	0.465759
4240.12	0.466278
4241.12	0.466827
4242.12	0.467346
4243.12	0.467865
4244.12	0.468353
4245.12	0.468872
4246.12	0.46936
4247.12	0.469849
4248.12	0.470306
4249.12	0.470795
4250.12	0.471252
4251.12	0.47171
4252.12	0.472137
4253.12	0.472565
4254.12	0.472992
4255.12	0.473419
4256.12	0.473846
4257.12	0.474274
4258.12	0.47467
4259.12	0.475098
4260.12	0.475494
4261.12	0.475891
4262.12	0.476257
4263.12	0.476654
4264.12	0.47702
4265.12	0.477417
4266.12	0.477783
4267.12	0.478149
4268.12	0.478516
4269.12	0.478882
4270.12	0.479279
4271.12	0.479645
4272.12	0.480011
4273.12	0.480347
4274.12	0.480743
4275.12	0.48111
4276.12	0.481445
4277.12	0.481781
4278.12	0.482147
4279.12	0.482483
4280.12	0.482819
4281.12	0.483154
4282.12	0.48349
4283.12	0.483795
4284.12	0.484131
4285.12	0.484436
4286.12	0.484772
4287.12	0.485077
4288.12	0.485382
4289.12	0.485687
4290.12	0.485992
4291.12	0.486298
4292.12	0.486603
4293.12	0.486908
4294.12	0.487213
4295.12	0.487518
4296.12	0.487793
4297.12	0.488068
4298.12	0.488373
4299.12	0.488678
4300.12	0.488953
4301.12	0.489227
4302.12	0.489532
4303.12	0.489807
4304.12	0.490082
4305.12	0.490326
4306.12	0.490601
4307.12	0.490875
4308.12	0.49115
4309.12	0.491425
4310.12	0.491699
4311.12	0.491943
4312.12	0.492218
4313.12	0.492493
4314.12	0.492737
4315.12	0.492981
4316.12	0.493256
4317.12	0.49353
4318.12	0.493774
4319.12	0.494019
4320.12	0.494263
4321.12	0.494507
4322.12	0.494781
4323.12	0.495026
4324.12	0.49527
4325.12	0.495514
4326.12	0.495758
4327.12	0.496002
4328.12	0.496277
4329.12	0.49649
4330.12	0.496735
4331.12	0.496948
4332.12	0.497192
4333.12	0.497437
4334.12	0.49762
4335.12	0.497864