File: Edgar/20240417/20240417/electrodeposition_pulsed_potential_B/data/OCP_1
Time (s)	WE(1).Potential (V)
1.88022	0.601196
2.88022	0.601501
3.88022	0.601501
4.88022	0.601501
5.88022	0.601501
6.88022	0.601501
7.88022	0.601501
8.88022	0.601501
9.88022	0.601501
10.8802	0.601807
11.8802	0.601807
12.8802	0.601807
13.8802	0.601807
14.8802	0.601807
15.8802	0.601807
16.8802	0.601807
17.8802	0.601807
18.8802	0.602112
19.8802	0.602112
20.8802	0.602112
21.8802	0.602112
22.8802	0.602112
23.8802	0.602112
24.8802	0.602112
25.8802	0.602417
26.8802	0.602417
27.8802	0.602417
28.8802	0.602417
29.8802	0.602417
30.8802	0.602417
31.8802	0.602417
32.8802	0.602417
33.8802	0.602417
34.8802	0.602417
35.8802	0.602722
36.8802	0.602722
37.8802	0.602722
38.8802	0.602722
39.8802	0.602722
40.8802	0.602722
41.8802	0.602722
42.8802	0.602722
43.8802	0.603027
44.8802	0.603027
45.8802	0.603027
46.8802	0.603027
47.8802	0.603027
48.8802	0.603027
49.8802	0.603027
50.8802	0.603027
51.8802	0.603027
52.8802	0.603333
53.8802	0.603333
54.8802	0.603333
55.8802	0.603333
56.8802	0.603333
57.8802	0.603333
58.8802	0.603333
59.8802	0.603333
60.8802	0.603333
61.8802	0.603638
62.8802	0.603638
63.8802	0.603638
64.8802	0.603638
65.8802	0.603638
66.8802	0.603638
67.8802	0.603943
68.8802	0.603943
69.8802	0.603943
70.8802	0.603943
71.8802	0.603943
72.8802	0.604248
73.8802	0.603943
74.8802	0.603943
75.8802	0.604248
76.8802	0.604248
77.8802	0.604248
78.8802	0.604248
79.8802	0.604248
80.8802	0.604248
81.8802	0.604248
82.8802	0.604553
83.8802	0.604553
84.8802	0.604553
85.8802	0.604553
86.8802	0.604553
87.8802	0.604553
88.8802	0.604553
89.8802	0.604553
90.8802	0.604553
91.8802	0.604858
92.8802	0.604858
93.8802	0.604858
94.8802	0.604858
95.8802	0.604858
96.8802	0.604858
97.8802	0.604858
98.8802	0.605164
99.8802	0.605164
100.88	0.605164
101.88	0.605164
102.88	0.605164
103.88	0.605164
104.88	0.605164
105.88	0.605164
106.88	0.605469
107.88	0.605469
108.88	0.605469
109.88	0.605469
110.88	0.605469
111.88	0.605469
112.88	0.605774
113.88	0.605774
114.88	0.605774
115.88	0.605774
116.88	0.605774
117.88	0.605774
118.88	0.605774
119.88	0.605774
120.88	0.605774
121.88	0.606079
122.88	0.606079
123.88	0.606079
124.88	0.606079
125.88	0.606079
126.88	0.606079
127.88	0.606079
128.88	0.606384
129.88	0.606384
130.88	0.606384
131.88	0.606384
132.88	0.606384
133.88	0.606384
134.88	0.606384
135.88	0.606384
136.88	0.606384
137.88	0.606689
138.88	0.606689
139.88	0.606689
140.88	0.606689
141.88	0.606689
142.88	0.606689
143.88	0.606689
144.88	0.606689
145.88	0.606995
146.88	0.606995
147.88	0.606995
148.88	0.606995
149.88	0.606995
150.88	0.606995
151.88	0.606995
152.88	0.606995
153.88	0.606995
154.88	0.606995
155.88	0.606995
156.88	0.6073
157.88	0.6073
158.88	0.6073
159.88	0.6073
160.88	0.6073
161.88	0.6073
162.88	0.6073
163.88	0.6073
164.88	0.6073
165.88	0.607605
166.88	0.607605
167.88	0.607605
168.88	0.607605
169.88	0.607605
170.88	0.607605
171.88	0.607605
172.88	0.607605
173.88	0.607605
174.88	0.607605
175.88	0.607605
176.88	0.607605
177.88	0.60791
178.88	0.60791
179.88	0.60791
180.88	0.60791