File: Edgar/20240417/20240417/electrodeposition_pulsed_potential_B/data/pulses_1000_to_2000.txt
Time (s)	WE(1).Potential (V)	WE(1).Current (A)
1506.41	-0.697723	-0.0272461
1510.77	0.607452	0.000363464
1515.09	0.607422	8.66089e-05
1519.43	-0.697845	-0.0251007
1523.79	0.607452	0.000347137
1528.11	0.607422	8.62427e-05
1532.45	-0.697937	-0.0237274
1536.81	0.607422	0.000319916
1541.13	0.607391	8.38623e-05
1545.47	-0.698029	-0.0225525
1549.83	0.607422	0.000294098
1554.15	0.607391	8.04138e-05
1558.51	0.000146484	0.00231232
1562.85	0.607391	0.00027124
1567.17	0.607452	7.84607e-05
1571.53	0.000204468	0.00176239
1575.87	0.607422	0.000251495
1580.19	0.607391	7.69958e-05
1584.55	0.000222778	0.00137177
1588.89	0.607361	0.000233765
1593.21	0.607483	7.47375e-05
1597.57	0.000259399	0.00106293
1601.91	0.607391	0.000218628
1606.23	0.607452	7.26624e-05
1610.61	0.606293	0.0193054
1614.93	0.607452	0.000205688
1619.25	0.607391	7.10144e-05
1623.63	0.606537	0.0165283
1627.95	0.607422	0.000192108
1632.27	0.607452	6.94275e-05
1636.65	0.606781	0.0132904
1640.97	0.607391	0.000182068
1645.29	0.607513	6.73523e-05
1649.67	0.6073	0.00671387
1653.99	0.607452	0.000171112
1658.31	0.607422	6.56738e-05
1662.69	0.607361	0.00275452
1667.01	0.607422	0.000161407
1671.33	0.607452	6.40869e-05
1675.71	0.607391	0.00181244
1680.03	0.607391	0.000154633
1684.35	0.607422	6.21948e-05
1688.73	0.607361	0.00135529
1693.05	0.607452	0.000147614
1697.37	0.607452	6.14014e-05
1701.75	0.607391	0.00107819
1706.07	0.607483	0.000140686
1710.39	0.607452	6.04858e-05
1714.77	0.607361	0.000890198
1719.09	0.607422	0.000135132
1723.41	0.607391	5.93262e-05
1727.79	0.607391	0.000755005
1732.11	0.607452	0.00012915
1736.43	0.607452	5.7373e-05
1740.81	0.607391	0.000652466
1745.13	0.607422	0.000122833
1749.45	0.607422	5.70068e-05
1753.83	0.607361	0.000571594
1758.15	0.607422	0.00011792
1762.47	0.607452	5.51758e-05
1766.85	0.607361	0.000507202
1771.17	0.607452	0.000113586
1775.51	-0.697723	-0.027243
1779.87	0.607483	0.000448486
1784.19	0.607422	0.000108887
1788.53	-0.697815	-0.0250549
1792.89	0.607452	0.000405609
1797.21	0.607452	0.000105286
1801.55	-0.697906	-0.0237488
1805.91	0.607422	0.000369629
1810.23	0.607422	0.000101624
1814.57	-0.697998	-0.0226746
1818.93	0.607391	0.000339355
1823.25	0.607483	9.82056e-05
1827.61	0.000158691	0.00206757
1831.95	0.607422	0.000314148
1836.27	0.607452	9.58557e-05
1840.63	0.00022583	0.0015683
1844.97	0.607422	0.000289185
1849.29	0.607483	9.35364e-05
1853.65	0.000210571	0.00121155
1857.99	0.607422	0.000269928
1862.31	0.607452	8.9386e-05
1866.67	0.000234985	0.000937805
1871.01	0.607452	0.000251282
1875.33	0.607422	8.7616e-05
1879.71	0.606354	0.0192413
1884.03	0.607452	0.000236816
1888.35	0.607422	8.53271e-05
1892.73	0.606537	0.0165955
1897.05	0.607422	0.000220703
1901.37	0.607391	8.26721e-05
1905.75	0.60675	0.0134888
1910.07	0.607513	0.000209686
1914.39	0.607452	8.05969e-05
1918.77	0.607208	0.00745544
1923.09	0.607422	0.00019754
1927.41	0.607452	7.76978e-05
1931.79	0.6073	0.0029364
1936.11	0.607452	0.0001875
1940.43	0.607452	7.72095e-05
1944.81	0.607361	0.00194611
1949.13	0.607452	0.000178009
1953.45	0.607422	7.41882e-05
1957.83	0.607391	0.00146545
1962.15	0.607422	0.000169403
1966.47	0.607452	7.35168e-05
1970.85	0.607391	0.00117035
1975.17	0.607452	0.000161102
1979.49	0.607422	6.99768e-05
1983.87	0.60733	0.000967712
1988.19	0.607483	0.000154144
1992.51	0.607452	6.84509e-05
1996.89	0.60733	0.000821533
2001.21	0.607513	0.00014743
2005.53	0.607452	6.77185e-05
2009.91	0.607361	0.00071106
2014.23	0.607422	0.000142151
2018.55	0.607452	6.53076e-05
2022.93	0.60733	0.000621948
2027.25	0.607452	0.000135559
2031.57	0.607452	6.46057e-05
2035.95	0.607269	0.000555115
2040.27	0.607422	0.000130829
2044.61	-0.697723	-0.0271423
2048.97	0.607361	0.000498962
2053.29	0.607391	0.000125702
2057.63	-0.697845	-0.0249939
2061.99	0.607452	0.000450378
2066.31	0.607422	0.000121216
2070.65	-0.697906	-0.0237366
2075.01	0.607452	0.000411285
2079.33	0.607452	0.000116882
2083.67	-0.698029	-0.0227631
2088.03	0.607422	0.000377258
2092.35	0.607452	0.000112854
2096.71	0.000161743	0.00188904
2101.05	0.607452	0.000348206
2105.37	0.607483	0.000108551
2109.73	0.000213623	0.00142334
2114.07	0.607452	0.000322296
2118.39	0.607422	0.000105469
2122.75	0.000247192	0.00110016
2127.09	0.607452	0.000300293
2131.41	0.607452	0.000103058
2135.77	0.000241089	0.000851746
2140.11	0.607483	0.000280579
2144.43	0.607391	9.93042e-05
2148.81	0.606323	0.0191803
2153.13	0.607391	0.000263031
2157.45	0.607452	9.56421e-05
2161.83	0.606537	0.0165741
2166.15	0.607452	0.000247253
2170.47	0.607483	9.30176e-05
2174.85	0.606781	0.0135345
2179.17	0.607391	0.000232635
2183.49	0.607452	9.06372e-05
2187.87	0.607178	0.00785522
2192.19	0.607452	0.000220703
2196.51	0.607422	8.8501e-05
2200.89	0.60733	0.00306763
2205.21	0.607483	0.000208405
2209.53	0.607391	8.56628e-05
2213.91	0.60733	0.00204437
2218.23	0.607452	0.000197388
2222.55	0.607391	8.30994e-05
2226.93	0.60733	0.00154877
2231.25	0.607452	0.000189514
2235.57	0.607422	8.19702e-05
2239.95	0.607391	0.00124786
2244.27	0.607422	0.000180115
2248.59	0.607452	7.95593e-05
2252.97	0.60733	0.00103851
2257.29	0.607391	0.000171967
2261.61	0.607422	7.70874e-05
2265.99	0.607391	0.00088562
2270.31	0.607422	0.000164459
2274.63	0.607483	7.58667e-05
2279.01	0.607391	0.000769958
2283.33	0.607422	0.000157318
2287.65	0.607422	7.34253e-05
2292.03	0.607391	0.000677795
2296.35	0.607452	0.000151398
2300.67	0.607391	7.21741e-05
2305.05	0.607391	0.000604248
2309.37	0.607422	0.000144867
2313.71	-0.697723	-0.0272217
2318.07	0.607452	0.000543213
2322.39	0.607483	0.000140533
2326.73	-0.697876	-0.0250641
2331.09	0.607452	0.000490112
2335.41	0.607452	0.000134979
2339.75	-0.697937	-0.0238129
2344.11	0.607483	0.000447906
2348.43	0.607391	0.00012915
2352.77	-0.697968	-0.0228821
2357.13	0.607422	0.000410889
2361.45	0.607422	0.00012381
2365.81	0.000167847	0.00170349
2370.15	0.607483	0.00037793
2374.47	0.607422	0.000119965
2378.83	0.000222778	0.00127075
2383.17	0.607391	0.000349579
2387.49	0.607361	0.000115692
2391.85	0.000241089	0.000984802
2396.19	0.607452	0.000325439
2400.51	0.607361	0.000112091
2404.87	0.000247192	0.000766602
2409.21	0.607422	0.00030426
2413.53	0.607391	0.000109955
2417.91	0.606354	0.0191437
2422.23	0.607422	0.000285553
2426.55	0.607422	0.000106354
2430.93	0.606567	0.0165833
2435.25	0.607452	0.000269684
2439.57	0.607422	0.000103058
2443.95	0.606781	0.0136292
2448.27	0.607391	0.000254242
2452.59	0.607452	0.000100891
2456.97	0.607117	0.00834351
2461.29	0.607391	0.000239807
2465.61	0.607483	9.82361e-05
2469.99	0.607361	0.00319397
2474.31	0.607422	0.000226654
2478.63	0.607483	9.60999e-05
2483.01	0.607391	0.00213165
2487.33	0.607422	0.000216125
2491.65	0.607422	9.23157e-05
2496.03	0.60733	0.00162079
2500.35	0.607452	0.000204681
2504.67	0.607422	9.00269e-05
2509.05	0.607391	0.00130768
2513.37	0.607422	0.00019519
2517.69	0.607422	8.77991e-05
2522.07	0.607391	0.00109344
2526.39	0.607361	0.000185211
2530.71	0.607452	8.57849e-05
2535.09	0.607422	0.000935059
2539.41	0.607452	0.000177795
2543.73	0.607452	8.43506e-05
2548.11	0.607391	0.000812378
2552.43	0.607422	0.000170441
2556.75	0.607422	8.20923e-05
2561.13	0.607361	0.000717468
2565.45	0.607422	0.000163696
2569.77	0.607422	8.00476e-05
2574.15	0.607391	0.000641174
2578.47	0.607422	0.000157959
2582.81	-0.697693	-0.0272095
2587.17	0.607391	0.000576782
2591.49	0.607391	0.000151642
2595.83	-0.697845	-0.0250488
2600.19	0.607391	0.000523682
2604.51	0.607391	0.000145874
2608.85	-0.697937	-0.0238159
2613.21	0.607452	0.000476532
2617.53	0.607422	0.000141235
2621.87	-0.697937	-0.0229095
2626.23	0.607391	0.000436401
2630.55	0.607391	0.000136993
2634.91	0.000167847	0.00159821
2639.25	0.607452	0.00040329
2643.57	0.607422	0.000131622
2647.93	0.000247192	0.00117798
2652.27	0.607483	0.00037381
2656.59	0.607483	0.00012738
2660.95	0.000231934	0.000901794
2665.29	0.607391	0.000347839
2669.61	0.607391	0.000122437
2673.97	0.000234985	0.000697021
2678.31	0.607422	0.000324524
2682.63	0.607452	0.000119415
2687.01	0.606293	0.0190704
2691.33	0.607422	0.000304626
2695.65	0.607361	0.000115723
2700.03	0.606537	0.0165466
2704.35	0.607422	0.000286835
2708.67	0.607422	0.000111938
2713.05	0.606781	0.0136261
2717.37	0.607422	0.00027124
2721.69	0.607452	0.000110077
2726.07	0.607117	0.00847473
2730.39	0.607422	0.000255554
2734.71	0.607422	0.000106628
2739.09	0.607361	0.00325684
2743.41	0.607452	0.000242554
2747.73	0.607452	0.000103912
2752.11	0.60733	0.00218719
2756.43	0.607513	0.000230621
2760.75	0.607452	0.000101227
2765.13	0.607391	0.00167328
2769.45	0.607452	0.000220398
2773.77	0.607422	9.88464e-05
2778.15	0.6073	0.00135651
2782.47	0.607422	0.000208801
2786.79	0.607452	9.59473e-05
2791.17	0.607361	0.00113739
2795.49	0.607422	0.000200592
2799.81	0.607452	9.31702e-05
2804.19	0.607391	0.000960388
2806.37	0.607422	8.40759e-05