File: Edgar/20240417/20240417/electrodeposition_pulsed_potential_B/data/pulses_0_to_1000.txt
Time (s)	WE(1).Potential (V)	WE(1).Current (A)
181.576	-0.699738	-0.00428223
185.936	0.608337	-2.2583e-06
190.256	0.607788	-2.34985e-06
194.596	-0.698669	-0.0066806
198.956	0.607758	9.46045e-07
203.276	0.607574	-2.65503e-06
207.616	-0.699188	-0.00762024
211.976	0.607208	-3.78418e-06
216.296	0.606659	3.78418e-06
220.636	-0.699615	-0.0079834
224.996	0.606934	2.41089e-06
229.316	0.607422	-7.01904e-07
233.676	0.000753784	0.0083252
238.016	0.6073	-7.01904e-07
242.336	0.606659	4.30298e-06
246.696	0.00017395	0.00488281
251.036	0.60675	4.11987e-06
255.356	0.607697	-3.96729e-06
259.716	1.83105e-05	0.00285065
264.056	0.607513	-3.66211e-07
268.376	0.606995	9.15527e-08
272.736	-0.000524902	0.00168945
277.076	0.606628	4.39453e-06
281.396	0.607758	-1.70898e-06
285.776	0.606415	0.0106384
290.096	0.607971	-4.73022e-06
294.416	0.608307	-8.69751e-06
298.796	0.608246	0.00103027
303.116	0.606659	4.11987e-06
307.436	0.608185	-7.38525e-06
311.816	0.607513	0.000304535
316.136	0.606506	5.52368e-06
320.456	0.606628	3.38745e-06
324.836	0.607239	0.000142548
329.156	0.606628	4.85229e-06
333.476	0.608093	-7.38525e-06
337.856	0.60675	9.03931e-05
342.176	0.608246	-7.41577e-06
346.496	0.608032	-5.37109e-06
350.876	0.606812	6.05164e-05
355.196	0.607452	-4.88281e-07
359.516	0.607819	-5.88989e-06
363.896	0.608246	3.83301e-05
368.216	0.608185	-6.04248e-06
372.536	0.606598	5.52368e-06
376.916	0.606812	3.82385e-05
381.236	0.606628	5.09644e-06
385.556	0.606812	1.0376e-06
389.936	0.607941	2.23083e-05
394.256	0.608093	-6.22559e-06
398.576	0.606567	3.63159e-06
402.956	0.607635	1.98975e-05
407.276	0.606964	4.27246e-06
411.596	0.608063	-7.01904e-06
415.976	0.606842	2.22168e-05
420.296	0.607391	-6.71387e-07
424.616	0.607605	-5.5542e-06
428.996	0.607971	1.39465e-05
433.316	0.608063	-6.10352e-06
437.636	0.608154	-6.04248e-06
442.016	0.607452	1.72729e-05
446.336	0.608246	-6.50024e-06
450.676	-0.697632	-0.0253967
455.036	0.607788	1.06506e-05
459.356	0.607941	-5.40161e-06
463.696	-0.698914	-0.0217407
468.056	0.608246	6.22559e-06
472.376	0.608246	-4.45557e-06
476.716	-0.698059	-0.0194061
481.076	0.607849	7.62939e-06
485.396	0.60788	-4.08936e-06
489.736	-0.699127	-0.0177521
494.096	0.607361	1.13831e-05
498.416	0.607941	-5.46265e-06
502.776	-0.000231934	0.00610565
507.116	0.606659	1.84326e-05
511.436	0.608215	-7.01904e-06
515.796	0.000241089	0.00469452
520.136	0.607178	1.34583e-05
524.456	0.607483	1.2207e-07
528.816	0.000952148	0.00354279
533.156	0.606873	1.59607e-05
537.476	0.60675	6.68335e-06
541.836	0.000201416	0.00262482
546.176	0.607758	9.24683e-06
550.496	0.607758	-2.74658e-06
554.876	0.605621	0.0186096
559.196	0.608368	4.36401e-06
563.516	0.608215	-6.83594e-06
567.896	0.606567	0.0145996
572.216	0.608124	7.44629e-06
576.536	0.608185	-5.21851e-06
580.916	0.607208	0.0089386
585.236	0.607758	1.01624e-05
589.556	0.608185	-5.98145e-06
593.936	0.607452	0.00215393
598.256	0.608307	7.01904e-06
602.576	0.606781	6.22559e-06
606.956	0.607513	0.0010614
611.276	0.608124	7.99561e-06
615.596	0.608124	-2.96021e-06
619.976	0.607605	0.000662842
624.296	0.607056	1.3855e-05
628.616	0.608093	-3.90625e-06
632.996	0.607422	0.000467468
637.316	0.607422	1.27563e-05
641.636	0.606689	6.073e-06
646.016	0.608032	0.00034668
650.336	0.608246	9.33838e-06
654.656	0.608246	-3.57056e-06
659.036	0.608246	0.000274261
663.356	0.606689	2.05688e-05
667.676	0.606659	8.23975e-06
672.056	0.606995	0.000234467
676.376	0.607605	1.54724e-05
680.696	0.608093	-1.64795e-06
685.076	0.607941	0.00019397
689.396	0.608215	9.79614e-06
693.716	0.607208	4.3335e-06
698.096	0.607574	0.000167572
702.416	0.608307	9.46045e-06
706.736	0.606628	8.94165e-06
711.116	0.606598	0.000157288
715.436	0.607086	1.953125E-05
719.776	-0.698334	-0.0268829
724.136	0.607666	0.000133606
728.456	0.608032	1.28479e-05
732.796	-0.697296	-0.0240417
737.156	0.607788	0.000119537
741.476	0.606842	2.19727e-05
745.816	-0.697906	-0.0219086
750.176	0.608002	0.00010733
754.496	0.608276	9.33838e-06
758.836	-0.698975	-0.020282
763.196	0.608215	9.71069e-05
767.516	0.607849	1.41907e-05
771.876	0.000128174	0.00419891
776.216	0.606842	9.61304e-05
780.536	0.608276	1.21765e-05
784.896	-0.000442505	0.0032251
789.236	0.608215	8.29468e-05
793.556	0.606689	2.34375e-05
797.916	0.000946045	0.00247192
802.257	0.606628	8.89282e-05
806.577	0.608063	1.20544e-05
810.937	0.000582886	0.0018869
815.277	0.607971	7.47986e-05
819.597	0.606659	2.39563e-05
823.977	0.606598	0.0191925
828.297	0.606842	7.73621e-05
832.617	0.608246	1.25122e-05
836.997	0.606628	0.0159027
841.317	0.607635	7.04346e-05
845.637	0.607025	2.18506e-05
850.017	0.607727	0.0120422
854.337	0.607086	6.9519e-05
858.657	0.607269	1.7395e-05
863.037	0.607269	0.00396149
867.357	0.608276	5.88379e-05
871.677	0.607056	2.17285e-05
876.057	0.606964	0.00181152
880.377	0.608246	5.57556e-05
884.697	0.606995	2.02942e-05
889.077	0.608154	0.00114868
893.397	0.608032	5.52368e-05
897.717	0.606628	2.5116e-05
902.097	0.606537	0.000836487
906.417	0.608246	5.23987e-05
910.737	0.608215	1.34583e-05
915.117	0.608276	0.000634155
919.437	0.607483	5.75562e-05
923.757	0.606689	2.15454e-05
928.137	0.608154	0.000510254
932.457	0.608093	5.0293e-05
936.777	0.608002	1.50452e-05
941.157	0.606659	0.000435272
945.477	0.607422	5.00793e-05
949.797	0.608093	1.37939e-05
954.177	0.60672	0.000371429
958.497	0.606659	5.66101e-05
962.817	0.607605	1.71814e-05
967.197	0.606598	0.000319824
971.517	0.606689	5.6366e-05
975.837	0.607574	2.10266e-05
980.217	0.607971	0.000276154
984.537	0.607544	4.77295e-05
988.877	-0.698212	-0.0270813
993.237	0.607269	0.000251282
997.557	0.608368	4.3396e-05
1001.9	-0.69754	-0.0247131
1006.26	0.607819	0.000221497
1010.58	0.607422	4.87671e-05
1014.92	-0.6987	-0.0229156
1019.28	0.608398	0.000198456
1023.6	0.608246	3.89709e-05
1027.94	-0.697296	-0.0214355
1032.3	0.607361	0.000189697
1036.62	0.607056	4.80347e-05
1040.98	-0.000650024	0.00326569
1045.32	0.607483	0.00017215
1049.64	0.607178	4.80347e-05
1054	0.000994873	0.00246796
1058.34	0.607574	0.000159943
1062.66	0.607269	4.28772e-05
1067.02	-0.000637817	0.00182556
1071.36	0.60672	0.000151276
1075.68	0.60672	4.58374e-05
1080.04	-0.000570679	0.00140961
1084.38	0.608276	0.000132507
1088.7	0.606628	4.49219e-05
1093.08	0.606873	0.0192719
1097.4	0.608246	0.000125092
1101.72	0.60675	4.55322e-05
1106.1	0.606171	0.0162689
1110.42	0.608276	0.000117126
1114.74	0.608063	3.52478e-05
1119.12	0.607391	0.0127686
1123.44	0.606598	0.00012262
1127.76	0.608185	3.57361e-05
1132.14	0.607361	0.00540039
1136.46	0.608154	0.000104218
1140.78	0.608246	3.25012e-05
1145.16	0.608154	0.00229797
1149.48	0.608337	9.8999e-05
1153.8	0.607422	3.78418e-05
1158.18	0.608032	0.00147736
1162.5	0.606903	0.000104889
1166.82	0.607971	3.37219e-05
1171.2	0.608154	0.00107666
1175.52	0.606995	0.000100067
1179.84	0.607849	3.41187e-05
1184.22	0.607727	0.000842285
1188.54	0.606964	9.4635e-05
1192.86	0.606598	4.26025e-05
1197.24	0.607147	0.000689392
1201.56	0.607391	8.71887e-05
1205.88	0.606781	4.0863e-05
1210.26	0.607544	0.000571899
1214.58	0.607819	8.14819e-05
1218.9	0.607269	3.71704e-05
1223.28	0.607574	0.000493469
1227.6	0.607941	7.72705e-05
1231.92	0.607391	3.50952e-05
1236.3	0.606628	0.000436462
1240.62	0.607056	8.27942e-05
1244.94	0.606995	3.75671e-05
1249.32	0.607513	0.000374725
1253.64	0.606995	7.75146e-05
1257.98	-0.696838	-0.0271942
1262.34	0.607758	0.000332886
1266.66	0.606689	7.77588e-05
1271	-0.698669	-0.0249634
1275.36	0.608276	0.000298553
1279.68	0.607849	6.97937e-05
1284.02	-0.697968	-0.0234711
1288.38	0.607422	0.000276031
1292.7	0.607422	6.90918e-05
1297.04	-0.698059	-0.0221558
1301.4	0.607361	0.000252533
1305.72	0.607361	6.70166e-05
1310.08	0.000149536	0.00267914
1314.42	0.607391	0.000233246
1318.74	0.607391	6.48193e-05
1323.1	0.000204468	0.00205658
1327.44	0.607452	0.000215942
1331.76	0.607422	6.29883e-05
1336.12	0.000219727	0.00159393
1340.46	0.607422	0.000202179
1344.78	0.607452	6.21643e-05
1349.14	0.00022583	0.00122803
1353.48	0.607483	0.000187622
1357.8	0.607422	5.99976e-05
1362.18	0.606354	0.0193542
1366.5	0.607391	0.000175323
1370.82	0.607422	5.88074e-05
1375.2	0.606567	0.0164703
1379.52	0.607422	0.00016568
1383.84	0.607452	5.71899e-05
1388.22	0.606781	0.0131683
1392.54	0.607452	0.000156616
1396.86	0.607422	5.59998e-05
1401.24	0.607269	0.00636749
1405.56	0.607422	0.000147919
1409.88	0.607422	5.49622e-05
1414.26	0.607361	0.00260681
1418.58	0.607422	0.000140503
1422.9	0.607391	5.34668e-05
1427.28	0.607361	0.00169739
1431.6	0.607422	0.000133118
1435.92	0.607452	5.22461e-05
1440.3	0.607361	0.00125641
1444.62	0.607391	0.00012735
1448.94	0.607391	5.13611e-05
1453.32	0.607361	0.000990601
1457.64	0.607422	0.00012207
1461.96	0.607452	5.08423e-05
1466.34	0.607361	0.000812683
1470.66	0.607452	0.000116699
1474.98	0.607391	4.9408e-05
1479.36	0.607361	0.000686646
1481.54	0.607452	4.5166e-05