File: Edgar/20240605/20240605/electrodeposition_pulsed_potential_20240605_B/pulses_3000_to_4000.txt
Time (s)	WE(1).Potential (V)	WE(1).Current (A)
2308	-0.697876	-0.023877
2310.34	-0.000469971	0.00748322
2312.66	0.000726318	0.00446442
2315	-0.6987	-0.0207947
2317.34	0.000601196	0.00766602
2319.66	-0.0003479	0.00454834
2322	-0.698608	-0.0207489
2324.34	-0.000747681	0.00769043
2326.66	-0.000231934	0.00457458
2329	-0.698608	-0.0207214
2331.34	-6.71387e-05	0.00769348
2333.66	0.00057373	0.00458557
2336	-0.69751	-0.0207123
2338.34	0.000344849	0.00769653
2340.66	7.01904e-05	0.00459106
2343	-0.698578	-0.0207001
2345.34	-0.000143433	0.00771484
2347.66	-0.000372314	0.00460907
2350	-0.698669	-0.0206818
2352.34	-8.8501e-05	0.00770874
2354.66	0.000775146	0.00460541
2357	-0.698669	-0.0206757
2359.34	0.000247192	0.00771179
2361.66	-0.000375366	0.00461884
2364	-0.698639	-0.0206665
2366.34	-0.000637817	0.00770569
2368.66	0.00017395	0.00461395
2371	-0.697632	-0.0206757
2373.34	-0.000592041	0.00769348
2375.66	0.000732422	0.00461792
2378	-0.697571	-0.0206665
2380.34	-0.000701904	0.00769348
2382.66	0.000152588	0.00462402
2385	-0.698578	-0.0206696
2387.34	-0.000482178	0.00769958
2389.66	0.000619507	0.00462067
2392	-0.697479	-0.0206696
2394.34	-0.000521851	0.00769653
2396.66	-0.000344849	0.00463409
2399	-0.697601	-0.0206665
2401.34	-0.000643921	0.00768433
2403.66	0.000753784	0.00462738
2406	-0.698242	-0.0206635
2408.34	-0.000439453	0.00767517
2410.66	-0.00032959	0.0046347
2413	-0.697662	-0.0206573
2415.34	0.000247192	0.00767517
2417.66	0.00078125	0.00462646
2420	-0.697784	-0.0206482
2422.34	-0.00067749	0.00766296
2424.66	0.000317383	0.00462769
2427	-0.698761	-0.020636
2429.34	0.00017395	0.00765686
2431.66	0.000512695	0.00463013
2434	-0.698822	-0.020639
2436.34	-0.000268555	0.00766296
2438.66	-0.000442505	0.00463562
2441	-0.698578	-0.0206207
2443.34	0.000112915	0.00764465
2445.66	0.000698853	0.00462952
2448	-0.6987	-0.0206116
2450.34	0.000213623	0.00765076
2452.66	6.10352e-05	0.00463287
2455	-0.698456	-0.0205994
2457.34	-0.000650024	0.00762939
2459.66	0.000708008	0.00463226
2462	-0.698547	-0.0205811
2464.34	0.000518799	0.00762329
2466.66	0.000732422	0.00463257
2469	-0.69873	-0.0205841
2471.34	-0.00057373	0.00762939
2473.66	-0.000222778	0.00464386
2476	-0.698639	-0.020578
2478.34	0.000579834	0.00761719
2480.66	0.000732422	0.00463684
2483	-0.697784	-0.0205627
2485.34	-0.000683594	0.00761719
2487.66	-0.000228882	0.00464813
2490	-0.69751	-0.0205566
2492.34	-0.000646973	0.00759888
2494.66	0.000161743	0.004646
2497	-0.698456	-0.0205444
2499.34	0.000164795	0.00759888
2501.66	0.000274658	0.00464691
2504	-0.698151	-0.0205353
2506.34	-0.000601196	0.00760193
2508.66	-0.000335693	0.00465027
2511	-0.698059	-0.0205444
2513.34	0.000527954	0.00757751
2515.66	-0.000390625	0.00463715
2518	-0.697571	-0.0205811
2520.34	3.05176e-06	0.00758667
2522.66	3.05176e-05	0.00464325
2525	-0.698608	-0.020575
2527.34	3.35693e-05	0.00758667
2529.66	-0.000430298	0.00464935
2532	-0.69754	-0.0205658
2534.34	0.000582886	0.00757751
2536.66	-5.49316e-05	0.00464661
2539	-0.697937	-0.0206146
2541.34	-0.000616455	0.00761414
2543.66	8.54492e-05	0.00466156
2546	-0.698547	-0.0206055
2548.34	-0.000616455	0.00760803
2550.66	-8.8501e-05	0.00466583
2553	-0.69754	-0.0206177
2555.34	0.000637817	0.00760498
2557.66	9.15527e-06	0.0046637
2560	-0.697479	-0.0206055
2562.34	0.000515747	0.00759277
2564.66	-0.000112915	0.00467743
2567	-0.697815	-0.0205902
2569.34	-0.00038147	0.00759888
2571.66	0.000811768	0.0046701
2574	-0.697601	-0.0205933
2576.34	-0.000112915	0.00760498
2578.66	-9.46045e-05	0.00468414
2581	-0.698578	-0.0205811
2583.34	0.000198364	0.00759888
2585.66	0.000650024	0.0046759
2588	-0.6987	-0.0205719
2590.34	-5.18799e-05	0.00758057
2592.66	-0.000228882	0.00468597
2595	-0.698425	-0.0205597
2597.34	-7.62939e-05	0.00758972
2599.66	0.000546265	0.00468292
2602	-0.69754	-0.0205627
2604.34	-0.00057373	0.00758057
2606.66	0.000366211	0.00468689
2609	-0.6987	-0.0205475
2611.34	-0.000741577	0.00756226
2613.66	0.000570679	0.0046817
2616	-0.698151	-0.0205292
2618.34	-0.000653076	0.00756226
2620.66	0.000723267	0.00468445
2623	-0.69812	-0.02052
2625.34	0.000125122	0.00755615
2627.66	0.000473022	0.00469391
2630	-0.697845	-0.02052
2632.34	-0.000143433	0.00755005
2634.66	-0.000427246	0.0046991
2637	-0.698761	-0.020517
2639.34	0.000161743	0.0075531
2641.66	0.000375366	0.00470276
2644	-0.698364	-0.0205353
2646.34	-0.000100708	0.007547
2648.66	0.000665283	0.0046991
2651	-0.697571	-0.0205353
2653.34	0.00022583	0.00754089
2655.66	0.000665283	0.00470001
2658	-0.698578	-0.0205261
2660.34	-3.05176e-06	0.00755615
2662.66	5.79834e-05	0.00470459
2665	-0.698669	-0.0205139
2667.34	0.000396729	0.00753784
2669.66	-0.000335693	0.00471436
2672	-0.698364	-0.0205231
2674.34	0.000183105	0.00753784
2676.66	0.000369263	0.00471039
2679	-0.69809	-0.0205078
2681.34	0.000436401	0.00753174
2683.66	0.000772095	0.00470978
2686	-0.698029	-0.0204956
2688.34	-0.000598145	0.00753479
2690.66	3.05176e-06	0.00471985
2693	-0.697601	-0.0204987
2695.34	0.000491333	0.00752563
2697.66	-0.000314331	0.0047168
2700	-0.698029	-0.0204834
2702.34	-0.000210571	0.00752563
2704.66	0.000531006	0.00471985
2707	-0.698761	-0.0204712
2709.34	-0.000595093	0.00751648
2711.66	-1.52588e-05	0.00472076
2714	-0.698639	-0.0205231
2716.34	0.000570679	0.00753479
2718.66	0.000244141	0.00471497
2721	-0.697693	-0.0205231
2723.34	0.000164795	0.00753479
2725.66	0.000289917	0.00471954
2728	-0.698578	-0.020517
2730.34	-0.000219727	0.00754089
2732.66	0.000723267	0.00472076
2735	-0.697876	-0.02052
2737.34	-0.000512695	0.00753784
2739.66	-8.8501e-05	0.00473206
2742	-0.698456	-0.0205139
2744.34	0.00015564	0.00751953
2746.66	0.000662231	0.00472717
2749	-0.698517	-0.0205078
2751.34	0.000683594	0.00752563
2753.66	0.000527954	0.00472717
2756	-0.69754	-0.0205139
2758.34	0.000161743	0.00751648
2760.66	0.000650024	0.00473145
2763	-0.69873	-0.0205139
2765.34	-0.000485229	0.00752869
2767.66	0.000671387	0.00473602
2770	-0.69873	-0.0205078
2772.34	0.000299072	0.00750732
2774.66	0.000860596	0.00473297
2777	-0.697601	-0.0204956
2779.34	-1.2207e-05	0.00750732
2781.66	4.88281e-05	0.0047403
2784	-0.6987	-0.0204895
2786.34	-8.8501e-05	0.00751038
2788.66	-0.000292969	0.00474609
2791	-0.698669	-0.0205048
2793.34	-0.000524902	0.00750732
2795.66	-0.000454712	0.0047464
2798	-0.697723	-0.0205048
2800.34	-0.000497437	0.00750458
2802.66	-0.000418091	0.00474976
2805	-0.69873	-0.0204865
2807.34	0.000436401	0.00750732
2809.66	0.00045166	0.00475006
2812	-0.698792	-0.0204865
2814.34	0.000534058	0.00750122
2816.66	-0.000424194	0.00475555
2819	-0.698761	-0.0204865
2821.34	0.000427246	0.00749512
2823.66	0.000238037	0.00475037
2826	-0.697601	-0.0204865
2828.34	-0.000436401	0.00749237
2830.66	0.000183105	0.0047522
2833	-0.697479	-0.0204803
2835.34	0.000192261	0.00748322
2837.66	0.000646973	0.00475952
2840	-0.697754	-0.0204773
2842.34	7.93457e-05	0.00748138
2844.66	-0.000494385	0.0047641
2847	-0.6987	-0.020462
2849.34	-0.000445557	0.00748749
2851.66	-9.15527e-06	0.00476593
2854	-0.698303	-0.0204529
2856.34	-0.000515747	0.00748077
2858.66	0.000335693	0.00476044
2861	-0.697662	-0.0204498
2863.34	-0.000439453	0.00747925
2865.66	0.000161743	0.0047641
2868	-0.697723	-0.0204559
2870.34	-0.000177002	0.00747498
2872.66	0.000256348	0.00477264
2875	-0.698029	-0.020462
2877.34	-0.000561523	0.00746002
2879.66	0.000708008	0.0047525
2882	-0.698151	-0.0204559
2884.34	-0.000579834	0.00745667
2886.66	0.000772095	0.00475983
2889	-0.698853	-0.0204407
2891.34	-0.000326538	0.00745087
2893.66	-0.000411987	0.00477478
2896	-0.698334	-0.0204346
2898.34	-0.000460815	0.00745483
2900.66	-0.000180054	0.00477081
2903	-0.698792	-0.0204315
2905.34	-0.000518799	0.00745667
2907.66	0.000100708	0.00478027
2910	-0.698425	-0.0204376
2912.34	-0.000100708	0.00745117
2914.66	6.40869e-05	0.00478546
2917	-0.697601	-0.0204254
2919.34	0.000646973	0.00744507
2921.66	0.000238037	0.00478363
2924	-0.69873	-0.0204132
2926.34	0.000558472	0.00744232
2928.66	0.000762939	0.00478302
2931	-0.69873	-0.0204132
2933.34	0.000482178	0.00743774
2935.66	-0.000314331	0.00479248
2938	-0.698639	-0.0203979
2940.34	-0.000408936	0.00744385
2942.66	0.000302124	0.00479187
2945	-0.697571	-0.0204102
2947.34	0.000152588	0.00743988
2949.66	-0.000457764	0.00479431
2952	-0.698669	-0.0204041
2954.34	-6.40869e-05	0.00743561
2956.66	0.000106812	0.00479309
2959	-0.698669	-0.0203918
2961.34	0.000668335	0.00742981
2963.66	-0.000415039	0.00480042
2966	-0.698608	-0.0203888
2968.34	-0.000158691	0.00743317
2970.66	0.000790405	0.00479279
2973	-0.698669	-0.0203827
2975.34	-0.000439453	0.00742859
2977.66	-0.00039978	0.00480255
2980	-0.697632	-0.0203888
2982.34	-0.000390625	0.00741943
2984.66	0.000210571	0.00479248
2987	-0.69754	-0.0203735
2989.34	0.000515747	0.00741577
2991.66	0.000408936	0.00480133
2994	-0.698792	-0.0203674
2996.34	-0.000491333	0.00741547
2998.66	0.000469971	0.00479736
3001	-0.697723	-0.0203644
3003.34	7.93457e-05	0.00741699
3005.66	-8.8501e-05	0.00480621
3007.96	-1.52588e-05	0.00330078