File: Edgar/20240605/20240605/electrodeposition_pulsed_potential_20240605_B/pulses_2000_to_3000.txt
Time (s)	WE(1).Potential (V)	WE(1).Current (A)
1599.17	-0.698151	-0.0233917
1601.51	-0.000671387	0.00787964
1603.83	9.46045e-05	0.00404785
1606.17	-0.697815	-0.0209717
1608.51	0.000445557	0.00802917
1610.83	0.000799561	0.00412781
1613.17	-0.698761	-0.0209259
1615.51	-1.52588e-05	0.00805054
1617.83	9.15527e-06	0.00416473
1620.17	-0.697693	-0.0209137
1622.51	-0.00072937	0.00807495
1624.83	0.000549316	0.00418121
1627.17	-0.698456	-0.0208954
1629.51	0.000247192	0.00809021
1631.83	0.000521851	0.00419678
1634.17	-0.697662	-0.0209015
1636.51	-0.000463867	0.00810242
1638.83	-0.000411987	0.00421783
1641.17	-0.698669	-0.0208923
1643.51	-0.000256348	0.00810852
1645.83	0.000274658	0.00422241
1648.17	-0.697632	-0.0208893
1650.51	-0.000646973	0.00808716
1652.83	0.000421143	0.00422882
1655.17	-0.697662	-0.020874
1657.51	0.000680542	0.00808411
1659.83	0.000540161	0.00423798
1662.17	-0.698761	-0.0208649
1664.51	0.000564575	0.008078
1666.83	-0.000430298	0.00424988
1669.17	-0.69754	-0.0208618
1671.51	0.000265503	0.00808411
1673.83	0.000762939	0.00424896
1676.17	-0.6987	-0.0208618
1678.51	-0.000424194	0.00808105
1680.83	-0.000418091	0.00426178
1683.17	-0.697937	-0.0208679
1685.51	-0.000531006	0.00807495
1687.83	0.000662231	0.00425873
1690.17	-0.69754	-0.0208588
1692.51	-0.000378418	0.0080719
1694.83	-0.0003479	0.00427002
1697.17	-0.698822	-0.0208954
1699.51	-0.000448608	0.00807495
1701.83	-0.000100708	0.00427094
1704.17	-0.697571	-0.0208893
1706.51	0.000521851	0.0080658
1708.83	-0.000494385	0.00427917
1711.17	-0.698456	-0.0208649
1713.51	0.000570679	0.0080658
1715.83	0.000735474	0.00427612
1718.17	-0.698151	-0.020871
1720.51	-0.000534058	0.00805969
1722.83	-0.000219727	0.00428467
1725.17	-0.697479	-0.0208893
1727.51	0.000424194	0.00805664
1729.83	0.000765991	0.00428497
1732.17	-0.698059	-0.020871
1734.51	0.000485229	0.00804443
1736.83	-0.000405884	0.00429535
1739.17	-0.698059	-0.0208862
1741.51	-1.2207e-05	0.00804138
1743.83	-0.000466919	0.00430573
1746.17	-0.69812	-0.0209229
1748.51	-0.000469971	0.00806274
1750.83	0.000732422	0.00430542
1753.17	-0.698059	-0.0209137
1755.51	-0.000164795	0.00805359
1757.83	0.000402832	0.00431244
1760.17	-0.697815	-0.0209229
1762.51	-0.000540161	0.00805664
1764.83	0.000784302	0.00431305
1767.17	-0.698761	-0.0209015
1769.51	0.000674438	0.00805359
1771.83	-3.35693e-05	0.00432556
1774.17	-0.69754	-0.0209045
1776.51	6.71387e-05	0.00805054
1778.83	-0.000473022	0.00433136
1781.17	-0.698303	-0.0208893
1783.51	-0.000326538	0.00805664
1785.83	-0.000238037	0.0043396
1788.17	-0.698273	-0.0208954
1790.51	0.00055542	0.00803833
1792.83	-0.000427246	0.00434418
1795.17	-0.698578	-0.0208923
1797.51	0.00057373	0.00804138
1799.83	0.000631714	0.00434052
1802.17	-0.698029	-0.0208954
1804.51	-0.000646973	0.00803833
1806.83	-0.000177002	0.00435059
1809.17	-0.698578	-0.0208771
1811.51	-0.000720215	0.00802917
1813.83	0.000515747	0.0043515
1816.17	-0.698547	-0.020874
1818.51	0.000335693	0.00801392
1820.83	0.000476074	0.00435455
1823.17	-0.698547	-0.020874
1825.51	0.000524902	0.00801392
1827.83	0.000863647	0.00435944
1830.17	-0.697876	-0.020874
1832.51	-0.000509644	0.00801086
1834.83	0.000640869	0.00436768
1837.17	-0.698029	-0.0208679
1839.51	-0.000653076	0.00802002
1841.83	0.000332642	0.00437469
1844.17	-0.697632	-0.0208679
1846.51	-0.000445557	0.00800476
1848.83	-0.000323486	0.00438202
1851.17	-0.697815	-0.0208679
1853.51	-0.000665283	0.00800171
1855.83	0.000372314	0.00437897
1858.17	-0.697449	-0.0208557
1860.51	0.000656128	0.00799255
1862.83	-0.000341797	0.00439056
1865.17	-0.69873	-0.0208466
1867.51	0.00050354	0.00798035
1869.83	0.000341797	0.00438324
1872.17	-0.69873	-0.0208374
1874.51	0.000592041	0.00797729
1876.83	-0.000421143	0.00439758
1879.17	-0.6987	-0.0208344
1881.51	0.000570679	0.00797424
1883.83	0.000772095	0.00439606
1886.17	-0.698517	-0.0208344
1888.51	0.000204468	0.0079834
1890.83	-0.000463867	0.0044101
1893.17	-0.697449	-0.0208344
1895.51	-0.000762939	0.00797424
1897.83	0.000769043	0.00440582
1900.17	-0.698059	-0.0208191
1902.51	-0.000253296	0.00796204
1904.83	-0.000521851	0.00441498
1907.17	-0.697754	-0.020813
1909.51	0.000466919	0.00795593
1911.83	-0.00010376	0.00442017
1914.17	-0.698181	-0.0207947
1916.51	0.000354004	0.00794373
1918.83	-0.000369263	0.00442139
1921.17	-0.6987	-0.0207886
1923.51	0.000592041	0.00793762
1925.83	0.000616455	0.00441986
1928.17	-0.697601	-0.0207886
1930.51	-0.000445557	0.00793152
1932.83	0.000119019	0.00442596
1935.17	-0.698212	-0.0207855
1937.51	-0.000558472	0.00793152
1939.83	0.000723267	0.00442413
1942.17	-0.69873	-0.0208252
1944.51	-0.000445557	0.00787048
1946.83	0.000561523	0.00437012
1949.17	-0.698822	-0.0208221
1951.51	-0.000634766	0.00786743
1953.83	-0.00015564	0.00438599
1956.17	-0.698181	-0.0207855
1958.51	-0.000366211	0.00787964
1960.83	0.000558472	0.0043985
1963.17	-0.698029	-0.0207794
1965.51	0.000506592	0.00787659
1967.83	0.000772095	0.00440643
1970.17	-0.69873	-0.0207642
1972.51	0.000543213	0.00786743
1974.83	0.000744629	0.00441498
1977.17	-0.697693	-0.0207611
1979.51	0.000402832	0.00787048
1981.83	2.44141e-05	0.00442657
1984.17	-0.697906	-0.0207458
1986.51	-0.000338745	0.00786743
1988.83	-0.000411987	0.00443115
1991.17	-0.697357	-0.0207458
1993.51	-0.000683594	0.00785522
1995.83	-1.83105e-05	0.00443451
1998.17	-0.698212	-0.0207489
2000.51	-6.40869e-05	0.00785522
2002.83	0.000714111	0.00443481
2005.17	-0.697876	-0.0207397
2007.51	-0.000442505	0.00783997
2009.83	0.000692749	0.00443665
2012.17	-0.698212	-0.0207275
2014.51	-3.96729e-05	0.00783081
2016.83	-0.00045166	0.00444946
2019.17	-0.698029	-0.0207245
2021.51	-0.000183105	0.00783386
2023.83	0.000759888	0.00444672
2026.17	-0.698212	-0.0207336
2028.51	0.000164795	0.00783081
2030.83	-0.000396729	0.00445984
2033.17	-0.697723	-0.0207153
2035.51	-1.52588e-05	0.0078186
2037.83	3.96729e-05	0.00446167
2040.17	-0.698608	-0.0207214
2042.51	0.000231934	0.00784302
2044.83	0.000778198	0.00445892
2047.17	-0.69812	-0.0207123
2049.51	-0.000192261	0.00783691
2051.83	0.000860596	0.00446472
2054.17	-0.698059	-0.0207184
2056.51	-0.000378418	0.00782471
2058.83	-0.000393677	0.00447205
2061.17	-0.698669	-0.0207001
2063.51	-0.000595093	0.00782471
2065.83	0.00071106	0.00447235
2068.17	-0.698029	-0.0207123
2070.51	0.000549316	0.00780945
2072.83	-0.000241089	0.00448364
2075.17	-0.698669	-0.020755
2077.51	0.000527954	0.00784912
2079.83	-0.000411987	0.00448944
2082.17	-0.698669	-0.0207428
2084.51	0.000570679	0.00783691
2086.83	0.000750732	0.00448395
2089.17	-0.697723	-0.0207489
2091.51	-0.000717163	0.00783691
2093.83	-0.000195313	0.0044931
2096.17	-0.698547	-0.0207184
2098.51	-0.000228882	0.00783691
2100.83	0.000125122	0.00449402
2103.17	-0.698242	-0.0207123
2105.51	-0.000640869	0.00782471
2107.83	0.000787354	0.00450043
2110.17	-0.697968	-0.0207428
2112.51	-0.000494385	0.00782776
2114.83	-0.000326538	0.00451019
2117.17	-0.698639	-0.0207275
2119.51	-0.000631714	0.00782471
2121.83	-0.000427246	0.00451385
2124.17	-0.698425	-0.0207184
2126.51	-0.000610352	0.00782166
2128.83	-0.000363159	0.0045166
2131.17	-0.69812	-0.0207275
2133.51	-0.000631714	0.00782166
2135.83	-9.76562e-05	0.00452148
2138.17	-0.697998	-0.0207123
2140.51	0.000524902	0.0078125
2142.83	-3.05176e-05	0.00452271
2145.17	-0.698547	-0.0207031
2147.51	0.000308228	0.00780029
2149.83	0.000790405	0.00452087
2152.17	-0.697937	-0.020697
2154.51	-0.000537109	0.0078064
2156.83	0.000201416	0.00452515
2159.17	-0.697571	-0.0207092
2161.51	-0.000723267	0.00779114
2163.83	-0.000430298	0.00453583
2166.17	-0.697998	-0.0207001
2168.51	-0.000134277	0.00778809
2170.83	-0.000488281	0.00453857
2173.17	-0.697693	-0.0206848
2175.51	0.000524902	0.00778503
2177.83	-0.000378418	0.00454254
2180.17	-0.697815	-0.0206726
2182.51	-0.000427246	0.00778809
2184.83	0.000177002	0.00454315
2187.17	-0.697571	-0.0207092
2189.51	0.000524902	0.00777588
2191.83	0.000256348	0.0045459
2194.17	-0.697662	-0.0207062
2196.51	2.44141e-05	0.00777283
2198.83	6.10352e-06	0.00454895
2201.17	-0.698639	-0.0207031
2203.51	0.000164795	0.00779419
2205.83	-0.000149536	0.00455719
2208.17	-0.6987	-0.0207214
2210.51	-0.000695801	0.00777893
2212.83	-0.000427246	0.00455994
2215.17	-0.697876	-0.0207214
2217.51	3.96729e-05	0.00778503
2219.83	-0.000250244	0.00456787
2222.17	-0.698181	-0.0207092
2224.51	0.000592041	0.00778198
2226.83	0.000827026	0.00456024
2229.17	-0.697876	-0.0207184
2231.52	-0.000643921	0.00777893
2233.84	-0.000213623	0.00457428
2236.18	-0.698639	-0.0207123
2238.52	-0.000631714	0.00776978
2240.84	-0.000527954	0.00457458
2243.18	-0.698334	-0.0207184
2245.52	-0.00055542	0.00778503
2247.84	-0.000396729	0.0045813
2250.18	-0.697571	-0.0207397
2252.52	-0.000637817	0.00777893
2254.84	0.000463867	0.0045752
2257.18	-0.698151	-0.0207428
2259.52	0.000238037	0.00776367
2261.84	-0.000350952	0.00458771
2264.18	-0.697937	-0.0207367
2266.52	-0.000643921	0.00776978
2268.84	0.000604248	0.00458527
2271.18	-0.698669	-0.0207306
2273.52	0.000387573	0.00776672
2275.84	0.000259399	0.00458771
2278.18	-0.697937	-0.0207458
2280.52	-0.000482178	0.00776062
2282.84	-0.000427246	0.00459442
2285.18	-0.697937	-0.0207336
2287.52	0.000195313	0.00775452
2289.84	0.000283813	0.00458832
2292.18	-0.698517	-0.0207428
2294.52	0.000546265	0.00775757
2296.84	-0.000320435	0.00460144
2299.14	6.10352e-06	0.00285522