File: Edgar/20240605/20240605/electrodeposition_pulsed_potential_20240605_B/pulses_1000_to_2000.txt
Time (s)	WE(1).Potential (V)	WE(1).Current (A)
890.192	-0.697357	-0.0224243
892.532	-0.000210571	0.00856628
894.852	0.000317383	0.00295441
897.192	-0.6987	-0.0211792
899.532	0.000476074	0.00871277
901.852	-0.000363159	0.00306793
904.192	-0.698669	-0.0211487
906.532	-0.000506592	0.00875854
908.852	0.000561523	0.00311249
911.192	-0.697662	-0.0211517
913.532	-0.00043335	0.00878296
915.852	-0.000286865	0.0031604
918.192	-0.697723	-0.0211334
920.532	-0.000558472	0.00878601
922.852	-0.000262451	0.00318878
925.192	-0.698578	-0.0211212
927.532	-0.000543213	0.00877075
929.852	1.52588e-05	0.00321014
932.192	-0.697998	-0.0211212
934.532	-0.000161743	0.0087677
936.852	-0.000250244	0.00323975
939.192	-0.697601	-0.0211151
941.532	0.000234985	0.00877075
943.852	0.000302124	0.00325775
946.192	-0.698578	-0.021106
948.532	-0.000531006	0.00875549
950.852	-0.000183105	0.00327759
953.192	-0.69754	-0.0211029
955.532	-0.000131226	0.00875854
957.852	0.000366211	0.00328979
960.192	-0.697571	-0.0210876
962.532	-0.000628662	0.00874023
964.852	-0.000195313	0.00331604
967.192	-0.698669	-0.0210632
969.532	-0.000643921	0.00872498
971.852	-0.000378418	0.0033313
974.192	-0.697937	-0.0210663
976.532	-0.000115967	0.00871277
978.852	0.000512695	0.00334686
981.192	-0.697815	-0.02109375
983.532	0.000210571	0.00871887
985.852	0.000778198	0.00335571
988.192	-0.6987	-0.0210785
990.532	-0.000485229	0.00870972
992.852	9.15527e-05	0.00337433
995.192	-0.698181	-0.0210693
997.532	-0.000286865	0.0086853
999.852	0.000576782	0.00339264
1002.19	-0.697845	-0.0210754
1004.53	-0.000509644	0.00868225
1006.85	0.000592041	0.00340576
1009.19	-0.698639	-0.0210693
1011.53	-0.000549316	0.00868225
1013.85	0.000454712	0.0034201
1016.19	-0.69751	-0.0210754
1018.53	-0.00022583	0.00868225
1020.85	0.000341797	0.00342896
1023.19	-0.69754	-0.0211212
1025.53	-7.62939e-05	0.0086731
1027.85	-0.000396729	0.0034491
1030.19	-0.697876	-0.0211273
1032.53	0.00010376	0.0086853
1034.85	9.15527e-06	0.00346558
1037.19	-0.698669	-0.0211151
1039.53	0.000222778	0.00870056
1041.85	2.44141e-05	0.00347137
1044.19	-0.697571	-0.0211456
1046.53	-5.79834e-05	0.00867004
1048.85	0.000335693	0.00348267
1051.19	-0.697601	-0.0211517
1053.53	-0.000543213	0.00867004
1055.85	0.000320435	0.00349945
1058.19	-0.6987	-0.0211304
1060.53	-0.000497437	0.00864868
1062.85	-0.000350952	0.00351593
1065.19	-0.69812	-0.0211426
1067.53	0.000494385	0.00864258
1069.85	-0.000366211	0.00353241
1072.19	-0.697571	-0.0211304
1074.53	-0.000561523	0.00863342
1076.85	-0.000131226	0.00354309
1079.19	-0.698425	-0.0211151
1081.53	2.13623e-05	0.00863647
1083.85	-0.000265503	0.00355682
1086.19	-0.697601	-0.0211243
1088.53	0.000274658	0.00861511
1090.85	0.000595093	0.00356323
1093.19	-0.697571	-0.021109
1095.53	-0.000497437	0.0085968
1097.85	8.8501e-05	0.00358093
1100.19	-0.697906	-0.0211121
1102.53	-8.54492e-05	0.0085907
1104.85	0.000613403	0.00358887
1107.19	-0.697449	-0.021109
1109.53	0.000180054	0.00858765
1111.85	0.000827026	0.00360596
1114.19	-0.698303	-0.021109
1116.53	-0.000650024	0.00858459
1118.85	0.000210571	0.00362213
1121.19	-0.697998	-0.0210968
1123.53	0.000170898	0.00856018
1125.85	6.10352e-05	0.00363464
1128.19	-0.697479	-0.0210815
1130.53	0.000454712	0.00856628
1132.85	-1.2207e-05	0.00364807
1135.19	-0.698761	-0.0210724
1137.53	-0.000671387	0.00854797
1139.85	-0.000396729	0.0036618
1142.19	-0.698639	-0.0210724
1144.53	-0.000418091	0.00854797
1146.85	-0.000198364	0.00367157
1149.19	-0.697754	-0.02109375
1151.53	-0.000723267	0.00855713
1153.85	-0.000384521	0.00368469
1156.19	-0.697968	-0.0211029
1158.53	-0.0006073	0.00855408
1160.85	0.000723267	0.00369049
1163.19	-0.69754	-0.021109
1165.53	-0.000500488	0.00853882
1167.85	-0.000140381	0.00370728
1170.19	-0.698486	-0.0210968
1172.53	-0.00039978	0.00852661
1174.85	0.000579834	0.00371094
1177.19	-0.697449	-0.0210968
1179.53	-0.000302124	0.00852966
1181.85	0.000775146	0.00369934
1184.19	-0.69754	-0.0211243
1186.53	-7.01904e-05	0.00848999
1188.85	-0.000375366	0.00371796
1191.19	-0.697571	-0.021109
1193.53	-9.15527e-06	0.00849609
1195.85	-0.000332642	0.00373077
1198.19	-0.697693	-0.021106
1200.53	-0.000476074	0.00848389
1202.85	0.000146484	0.00374084
1205.19	-0.697815	-0.02109375
1207.53	-0.000210571	0.00848694
1209.85	-0.000186157	0.00375397
1212.19	-0.698639	-0.0210876
1214.53	0.000268555	0.00847778
1216.85	0.000769043	0.00375977
1219.19	-0.6987	-0.0210815
1221.53	0.000469971	0.00847168
1223.85	0.000311279	0.0037735
1226.19	-0.697418	-0.0210876
1228.53	0.000219727	0.00846863
1230.85	0.00017395	0.00378326
1233.19	-0.698761	-0.0210785
1235.53	-0.00045166	0.00844421
1237.85	1.2207e-05	0.00380005
1240.19	-0.69754	-0.0210785
1242.53	0	0.00844727
1244.85	-0.000415039	0.00380859
1247.19	-0.698364	-0.0210663
1249.53	-0.000741577	0.00842285
1251.85	0.000463867	0.00381104
1254.19	-0.697479	-0.021051
1256.53	0.000253296	0.0084137
1258.85	-0.000338745	0.0038269
1261.19	-0.697815	-0.021051
1263.53	-0.000628662	0.0084137
1265.85	0.000405884	0.00383545
1268.19	-0.698669	-0.0210449
1270.53	-0.000158691	0.0084198
1272.85	-0.000222778	0.00385132
1275.19	-0.698547	-0.0210358
1277.53	0.000192261	0.00839539
1279.85	0.000723267	0.00385132
1282.19	-0.69751	-0.0210419
1284.53	-7.93457e-05	0.00833435
1286.85	-0.000280762	0.00380066
1289.19	-0.698151	-0.0210907
1291.53	-0.000326538	0.0083252
1293.85	0.000787354	0.00381531
1296.19	-0.698639	-0.0210632
1298.53	-0.000640869	0.00834045
1300.85	-0.000289917	0.00384216
1303.19	-0.697815	-0.0210632
1305.53	0.000463867	0.00834351
1307.85	-2.13623e-05	0.00385956
1310.19	-0.6987	-0.0210724
1312.53	0.000509644	0.00834351
1314.85	-0.000454712	0.00387543
1317.19	-0.6987	-0.0210968
1319.53	-0.000643921	0.00835876
1321.85	-0.000241089	0.00388062
1324.19	-0.697815	-0.021109
1326.53	-0.000646973	0.00836792
1328.85	-0.000302124	0.00389252
1331.19	-0.698181	-0.021106
1333.53	0.000527954	0.00835571
1335.85	0.00022583	0.00389862
1338.19	-0.69873	-0.0210754
1340.53	0.0006073	0.00835266
1342.85	-0.000354004	0.00391113
1345.19	-0.698303	-0.0210663
1347.53	-0.000460815	0.00834961
1349.85	0.000653076	0.00391418
1352.19	-0.698669	-0.0210663
1354.53	-0.000622559	0.0083313
1356.85	-0.000411987	0.00393311
1359.19	-0.697968	-0.0210571
1361.53	-0.000454712	0.00831909
1363.85	0.000195313	0.00393616
1366.19	-0.698669	-0.0210571
1368.53	-0.000436401	0.00832214
1370.85	0.000726318	0.00394623
1373.19	-0.697479	-0.021051
1375.53	-7.32422e-05	0.00830688
1377.85	0.000680542	0.00395142
1380.19	-0.697754	-0.021051
1382.53	0.000540161	0.00830383
1384.85	-0.000189209	0.00394318
1387.19	-0.698456	-0.0210632
1389.53	-0.000704956	0.00827332
1391.85	0.000283813	0.0039444
1394.19	-0.697571	-0.0210632
1396.53	-0.000350952	0.00826721
1398.85	0.000588989	0.00395905
1401.19	-0.69751	-0.0210602
1403.53	-0.000369263	0.00827332
1405.85	-0.000219727	0.00397247
1408.19	-0.697571	-0.0210541
1410.53	-0.00039978	0.00827026
1412.85	-0.000384521	0.00398529
1415.19	-0.69751	-0.021048
1417.53	7.93457e-05	0.008255
1419.85	0.000534058	0.00399292
1422.19	-0.69754	-0.0210266
1424.53	-3.35693e-05	0.00825806
1426.85	0.00062561	0.00400543
1429.19	-0.697571	-0.0210297
1431.53	-0.00039978	0.00825806
1433.85	-0.000363159	0.00401947
1436.19	-0.69873	-0.0210022
1438.53	-0.000650024	0.00825195
1440.85	-6.71387e-05	0.00402344
1443.19	-0.698486	-0.0209961
1445.53	-0.000485229	0.00824585
1447.85	0.000738525	0.00403015
1450.19	-0.698151	-0.02099
1452.53	0.000216675	0.00823059
1454.85	-0.000402832	0.00404663
1457.19	-0.698608	-0.0209839
1459.53	4.88281e-05	0.00823059
1461.85	0.000820923	0.00405029
1464.19	-0.698303	-0.0209778
1466.53	-0.000357056	0.00823059
1468.85	0.000421143	0.00405914
1471.19	-0.698425	-0.0209747
1473.53	0.000320435	0.00822144
1475.85	0.000610352	0.00406342
1478.19	-0.698639	-0.0209656
1480.53	-0.000415039	0.00820923
1482.85	-0.000448608	0.00407593
1485.19	-0.698517	-0.0209686
1487.53	-0.000643921	0.008203125
1489.85	0.000787354	0.00407867
1492.19	-0.697784	-0.0209564
1494.53	-0.000274658	0.00819702
1496.85	-0.000430298	0.00409302
1499.19	-0.698761	-0.0209534
1501.53	-0.000631714	0.00820007
1503.85	0.000592041	0.00409424
1506.19	-0.697968	-0.0209564
1508.53	0.000540161	0.00818787
1510.85	-0.000271606	0.00410797
1513.19	-0.697662	-0.0209442
1515.53	-0.000247192	0.00818787
1517.85	0.000845337	0.00410614
1520.19	-0.698151	-0.0209381
1522.53	0.000143433	0.00816345
1524.85	-0.000494385	0.00411987
1527.19	-0.697815	-0.020929
1529.53	0.000299072	0.00817566
1531.85	0.000491333	0.00412018
1534.19	-0.698425	-0.0209229
1536.53	0.000576782	0.00816345
1538.85	-0.000323486	0.00413269
1541.19	-0.698639	-0.0209167
1543.53	-0.000753784	0.00815125
1545.85	0.000378418	0.00413635
1548.19	-0.697418	-0.020929
1550.53	0.000537109	0.0081543
1552.85	0.000802612	0.00414154
1555.19	-0.69751	-0.0209167
1557.53	-0.000161743	0.00814819
1559.85	0.00071106	0.00414825
1562.19	-0.697601	-0.0209106
1564.53	-0.000537109	0.00813599
1566.85	-7.62939e-05	0.00415955
1569.19	-0.698456	-0.0208862
1571.53	-7.32422e-05	0.00812073
1573.85	-9.15527e-05	0.00416473
1576.19	-0.69751	-0.0208862
1578.53	0.000460815	0.00812683
1580.85	-0.000317383	0.00417206
1583.19	-0.698517	-0.020871
1585.53	-0.000460815	0.00812378
1587.85	-0.000430298	0.00417267
1590.15	0.000253296	0.00217102