File: Edgar/20240605/20240605/electrodeposition_pulsed_potential_20240605_B/pulses_0_to_1000.txt
Time (s)	WE(1).Potential (V)	WE(1).Current (A)
181.727	-0.698547	-0.00457794
184.067	-0.000302124	0.000144073
186.387	0.000671387	1.40381e-06
188.727	-0.698456	-0.00741913
191.067	-8.54492e-05	0.000155365
193.387	0.00071106	-9.56116e-05
195.727	-0.699188	-0.00945129
198.067	-0.000296021	0.000299835
200.387	-0.00020752	-0.000142303
202.727	-0.69931	-0.0108398
205.067	-6.40869e-05	0.000779724
207.387	-0.000286865	-0.000176361
209.727	-0.698669	-0.0119507
212.067	3.96729e-05	0.00152832
214.387	0.000415039	-0.000203247
216.727	-0.698273	-0.0128387
219.067	-0.000198364	0.00238525
221.387	-0.000262451	-0.000218597
223.727	-0.69812	-0.0135925
226.067	-0.000137329	0.00322723
228.387	0.000640869	-0.00023819
230.727	-0.699127	-0.0142242
233.067	-0.000219727	0.0040033
235.387	-0.000222778	-0.00024118
237.727	-0.697968	-0.0147797
240.067	0.000350952	0.00467926
242.387	0.000622559	-0.00025531
244.727	-0.698334	-0.0152527
247.067	-0.000274658	0.0052594
249.387	0.000442505	-0.000256775
251.727	-0.698761	-0.0156799
254.067	-0.000302124	0.00574921
256.387	0.000579834	-0.000257202
258.727	-0.698944	-0.0160522
261.067	5.49316e-05	0.00616211
263.387	0.000244141	-0.000249756
265.727	-0.697937	-0.0163971
268.067	-0.000256348	0.0065271
270.387	-0.000234985	-0.000234314
272.727	-0.698914	-0.0167023
275.067	0.000177002	0.00682739
277.387	0.000579834	-0.000224182
279.727	-0.698914	-0.01698
282.067	-0.000405884	0.00710358
284.387	0.000759888	-0.000204926
286.727	-0.697937	-0.0172394
289.067	0.000518799	0.0073288
291.387	0.000109863	-0.000176239
293.727	-0.698059	-0.0174713
296.067	-7.01904e-05	0.00754089
298.387	0.000613403	-0.000146576
300.727	-0.69873	-0.0176788
303.067	0.000469971	0.00772705
305.387	0.000704956	-0.00011554
307.727	-0.698822	-0.0178741
310.067	-0.00045166	0.00788879
312.387	-0.000292969	-6.97021e-05
314.727	-0.698425	-0.0180573
317.067	0.000469971	0.00803528
319.387	-0.000146484	-3.11279e-05
321.727	-0.697784	-0.0182251
324.067	0.000524902	0.00817261
326.387	-0.000192261	1.40381e-05
328.727	-0.69812	-0.0183868
331.067	0.000439453	0.00827637
333.387	0.000405884	5.56335e-05
335.727	-0.698425	-0.0185272
338.067	0.000393677	0.00838013
340.387	-0.000274658	0.000107635
342.727	-0.697815	-0.0186676
345.067	0.000448608	0.00846863
347.387	-0.000317383	0.000157257
349.727	-0.697845	-0.0188049
352.067	0.00020752	0.00856018
354.387	0.000683594	0.000201843
356.727	-0.698547	-0.0189117
359.067	-0.000152588	0.00863037
361.387	-3.35693e-05	0.000256348
363.727	-0.698303	-0.0190186
366.067	0.000430298	0.0086792
368.387	-0.000216675	0.000315399
370.727	-0.698517	-0.0191284
373.067	0.000186157	0.00874939
375.387	-1.83105e-05	0.000367401
377.727	-0.697968	-0.0192322
380.067	-0.000338745	0.00881042
382.387	-2.13623e-05	0.000421631
384.727	-0.697754	-0.0193268
387.067	0.000186157	0.0088562
389.387	0.000256348	0.000475616
391.727	-0.698822	-0.0194244
394.067	0.00015564	0.00888367
396.387	0.00043335	0.00053009
398.727	-0.698059	-0.0195007
401.067	2.44141e-05	0.00892029
403.387	0.000799561	0.000584106
405.727	-0.698425	-0.0195831
408.067	0.000296021	0.00895691
410.387	0.000534058	0.000640564
412.727	-0.698517	-0.0196564
415.067	0.000430298	0.00899353
417.387	-0.000216675	0.000704041
419.727	-0.698669	-0.0197388
422.067	0.0003479	0.00901489
424.387	0.000360107	0.000751038
426.727	-0.698212	-0.0198212
429.067	-0.000515747	0.00905457
431.387	-0.000259399	0.000811768
433.727	-0.697998	-0.0199036
436.067	-2.74658e-05	0.00906982
438.387	-2.13623e-05	0.00086731
440.727	-0.698761	-0.0199554
443.067	0.000198364	0.00909119
445.387	0.00078125	0.000914612
447.727	-0.697723	-0.0200226
450.067	-0.000363159	0.00911865
452.387	-0.000210571	0.000972595
454.727	-0.698547	-0.0200867
457.067	0.000292969	0.00912781
459.387	6.40869e-05	0.00101776
461.727	-0.697723	-0.0201447
464.067	-0.000357056	0.00914307
466.387	0.000689697	0.00107056
468.727	-0.698608	-0.0201935
471.067	-0.000177002	0.00913696
473.387	0.000686646	0.0011203
475.727	-0.697693	-0.0202393
478.067	-0.000396729	0.00916138
480.387	-2.44141e-05	0.00117645
482.727	-0.697693	-0.0202881
485.067	-0.000552368	0.00915527
487.387	0.000787354	0.00122803
489.727	-0.698761	-0.0203217
492.067	-0.000537109	0.00915527
494.387	-0.000115967	0.00128113
496.727	-0.698761	-0.0203705
499.067	-0.000579834	0.00916748
501.387	0.000180054	0.001328125
503.727	-0.697937	-0.0204163
506.067	1.52588e-05	0.00917664
508.387	0.000708008	0.00137207
510.727	-0.697662	-0.0204468
513.067	-0.000390625	0.00917053
515.387	-0.00012207	0.0014267
517.727	-0.69754	-0.0204803
520.067	2.13623e-05	0.00918579
522.387	-0.000250244	0.00147369
524.727	-0.698761	-0.0205139
527.067	0.000485229	0.00917358
529.387	-0.000137329	0.00152618
531.727	-0.697906	-0.0205505
534.067	0.000247192	0.00917053
536.387	-0.000299072	0.00157227
538.727	-0.69809	-0.020575
541.067	0.000210571	0.00918579
543.387	-0.000195313	0.0016214
545.727	-0.698425	-0.0205963
548.067	0.000228882	0.00918274
550.387	0.000305176	0.0016626
552.727	-0.697723	-0.0206238
555.067	-0.000326538	0.00917053
557.387	0.000537109	0.00170746
559.727	-0.697876	-0.020639
562.067	0.00055542	0.00916748
564.387	0.000869751	0.00174927
566.727	-0.69809	-0.0206573
569.067	-0.0006073	0.00916138
571.387	0.000906372	0.0017926
573.727	-0.697693	-0.0206848
576.067	0.000534058	0.00915222
578.387	6.10352e-05	0.00183868
580.727	-0.698242	-0.0207001
583.067	-0.000723267	0.00914001
585.387	0.000741577	0.00187653
587.727	-0.698883	-0.0207031
590.067	0.000527954	0.00913086
592.387	0.000823975	0.00191376
594.727	-0.697693	-0.0207489
597.067	-3.05176e-05	0.00915222
599.387	0.00078125	0.00195404
601.727	-0.698181	-0.0207703
604.067	-0.000460815	0.00913391
606.387	0.000814819	0.00199646
608.727	-0.69754	-0.0207916
611.067	-0.000598145	0.00912781
613.387	0.000335693	0.00202271
615.727	-0.698669	-0.0208038
618.067	-0.00010376	0.00910034
620.387	-0.000308228	0.00206055
622.727	-0.698578	-0.020816
625.067	-0.000411987	0.00908508
627.387	-0.000308228	0.00209808
629.727	-0.698669	-0.0208221
632.067	0.000372314	0.00907898
634.387	0.000152588	0.00213593
636.727	-0.697662	-0.0208313
639.067	-0.000601196	0.00906067
641.387	0.000549316	0.00217163
643.727	-0.697784	-0.0208374
646.067	0.000152588	0.00905151
648.387	0.000830078	0.00220734
650.727	-0.698059	-0.0208344
653.067	0.000497437	0.00904236
655.387	0.000570679	0.00224182
657.727	-0.697784	-0.0208618
660.067	-0.000570679	0.0090332
662.387	0.000772095	0.00227783
664.727	-0.697937	-0.0208557
667.067	0.0003479	0.00903015
669.387	-0.000204468	0.00231812
671.727	-0.698547	-0.0208923
674.067	-0.000296021	0.0090332
676.387	0.000863647	0.00234406
678.727	-0.698486	-0.0208862
681.067	3.05176e-06	0.00901794
683.388	0.000427246	0.00237518
685.728	-0.697754	-0.0209076
688.068	-0.000549316	0.00901489
690.388	0.000430298	0.00240936
692.728	-0.698517	-0.0209137
695.068	-0.000482178	0.00901184
697.388	0.000662231	0.00244141
699.728	-0.697632	-0.0209259
702.068	0.000408936	0.00899658
704.388	0.000579834	0.00247406
706.728	-0.697601	-0.0209595
709.068	-0.000570679	0.009021
711.388	-0.00015564	0.0025058
713.728	-0.698303	-0.0209656
716.068	-0.000375366	0.00900574
718.388	0.00057373	0.0025293
720.728	-0.697937	-0.0209625
723.068	-0.000250244	0.00899353
725.388	0.000686646	0.0025589
727.728	-0.698639	-0.0209656
730.068	-7.01904e-05	0.00897827
732.388	0.000537109	0.00259186
734.728	-0.698334	-0.0209808
737.068	0.000161743	0.00897217
739.388	0.000466919	0.00262115
741.728	-0.698517	-0.0210022
744.068	-0.000549316	0.00898132
746.388	-0.000170898	0.00264893
748.728	-0.69809	-0.0210175
751.068	-0.000402832	0.00896301
753.388	0.000717163	0.00267212
755.728	-0.697968	-0.0210236
758.068	0.000411987	0.00896606
760.388	-0.000317383	0.00270721
762.728	-0.69754	-0.0210358
765.068	-1.52588e-05	0.0089447
767.388	0.000698853	0.00273102
769.728	-0.698181	-0.0210358
772.068	0.000488281	0.0089386
774.388	-0.000149536	0.00275696
776.728	-0.697601	-0.021048
779.068	6.10352e-06	0.00894165
781.388	0.000268555	0.00277496
783.728	-0.69751	-0.0210724
786.068	0.000454712	0.0089325
788.388	-0.000366211	0.00280365
790.728	-0.697662	-0.0210785
793.068	0.000369263	0.00892639
795.388	-0.000357056	0.00283173
797.728	-0.698639	-0.0210999
800.068	0.000582886	0.0089325
802.388	-0.000280762	0.00285797
804.728	-0.698242	-0.0211182
807.068	-0.000500488	0.0089325
809.388	-0.00017395	0.00287964
811.728	-0.697906	-0.0211212
814.068	-0.000585937	0.00892639
816.388	-0.000354004	0.00290588
818.728	-0.698578	-0.0211334
821.068	-0.000692749	0.00891113
823.388	-0.000430298	0.00292816
825.728	-0.698425	-0.0211121
828.068	0.000320435	0.00889893
830.388	0.000726318	0.00294495
832.728	-0.698181	-0.0211334
835.068	0.0003479	0.00888977
837.388	-7.01904e-05	0.00297455
839.728	-0.698303	-0.0211426
842.068	-0.000628662	0.00888062
844.388	-0.000393677	0.0029953
846.728	-0.698669	-0.0211426
849.068	-0.000274658	0.00888977
851.388	-0.000302124	0.00301147
853.728	-0.69754	-0.0211761
856.068	0.000421143	0.00887451
858.388	-0.000314331	0.00303192
860.728	-0.69751	-0.0211609
863.068	0.000332642	0.0088562
865.388	0.000466919	0.00304535
867.728	-0.697693	-0.0211578
870.068	0.000518799	0.00884705
872.388	-0.000332642	0.0030719
874.728	-0.697571	-0.0211578
877.068	-0.000448608	0.00882874
879.388	0.000723267	0.00308624
881.688	0.000427246	0.000888672