File: Edgar/20240508/20240508/electrodeposition_pulsed_potential_20240508_B/data/OCP_1
Time (s)	WE(1).Potential (V)
2.01722	0.53833
3.01722	0.53894
4.01722	0.539246
5.01722	0.539551
6.01722	0.540161
7.01722	0.540466
8.01722	0.540771
9.01722	0.541077
10.0172	0.541687
11.0172	0.541992
12.0172	0.542297
13.0172	0.542908
14.0172	0.543213
15.0172	0.543518
16.0172	0.544128
17.0172	0.544128
18.0172	0.544739
19.0172	0.545044
20.0172	0.545654
21.0172	0.545959
22.0172	0.546265
23.0172	0.54657
24.0172	0.546875
25.0172	0.54718
26.0172	0.547485
27.0172	0.548096
28.0172	0.548401
29.0172	0.548706
30.0172	0.549011
31.0172	0.549316
32.0172	0.549927
33.0172	0.550232
34.0172	0.550232
35.0172	0.550537
36.0172	0.551147
37.0172	0.551453
38.0172	0.552063
39.0172	0.552368
40.0172	0.552673
41.0172	0.552979
42.0172	0.553284
43.0172	0.553589
44.0172	0.554199
45.0172	0.554504
46.0172	0.555115
47.0172	0.55542
48.0172	0.555725
49.0172	0.55603
50.0172	0.556335
51.0172	0.556641
52.0172	0.556946
53.0172	0.557251
54.0172	0.557556
55.0172	0.558167
56.0172	0.558472
57.0172	0.558777
58.0172	0.559082
59.0172	0.559387
60.0172	0.559692
61.0172	0.559998
62.0172	0.560303
63.0172	0.560608
64.0172	0.560913
65.0172	0.561218
66.0172	0.561523
67.0172	0.561523
68.0172	0.561829
69.0172	0.562439
70.0172	0.562439
71.0172	0.563049
72.0172	0.563049
73.0172	0.563354
74.0172	0.563354
75.0172	0.56366
76.0172	0.563965
77.0172	0.563965
78.0172	0.56427
79.0172	0.564575
80.0172	0.564575
81.0172	0.56488
82.0172	0.565186
83.0172	0.565491
84.0172	0.565491
85.0172	0.565796
86.0172	0.565796
87.0172	0.565796
88.0172	0.566101
89.0172	0.566406
90.0172	0.566406
91.0172	0.566711
92.0172	0.566711
93.0172	0.567017
94.0172	0.567017
95.0172	0.567322
96.0172	0.567322
97.0172	0.567627
98.0172	0.567932
99.0172	0.567932
100.017	0.568237
101.017	0.568237
102.017	0.568237
103.017	0.568542
104.017	0.568848
105.017	0.568848
106.017	0.569153
107.017	0.569153
108.017	0.569458
109.017	0.569458
110.017	0.569763
111.017	0.570068
112.017	0.570068
113.017	0.570374
114.017	0.570374
115.017	0.570679
116.017	0.570679
117.017	0.570984
118.017	0.570984
119.017	0.571289
120.017	0.571289
121.017	0.571289
122.017	0.571594
123.017	0.571594
124.017	0.571899
125.017	0.571899
126.017	0.572205
127.017	0.572205
128.017	0.57251
129.017	0.57251
130.017	0.572815
131.017	0.572815
132.017	0.57312
133.017	0.57312
134.017	0.573425
135.017	0.573425
136.017	0.57373
137.017	0.57373
138.017	0.574036
139.017	0.574036
140.017	0.574341
141.017	0.574646
142.017	0.574646
143.017	0.574951
144.017	0.574951
145.017	0.575256
146.017	0.575256
147.017	0.575562
148.017	0.575562
149.017	0.575867
150.017	0.575867
151.017	0.575867
152.017	0.576172
153.017	0.576172
154.017	0.576477
155.017	0.576477
156.017	0.576782
157.017	0.576782
158.017	0.576782
159.017	0.577087
160.017	0.577087
161.017	0.577087
162.017	0.577393
163.017	0.577393
164.017	0.577698
165.017	0.577698
166.017	0.578003
167.017	0.578003
168.017	0.578003
169.017	0.578308
170.017	0.578308
171.017	0.578613
172.017	0.578613
173.017	0.578613
174.017	0.578918
175.017	0.578918
176.017	0.579224
177.017	0.579224
178.017	0.579529
179.017	0.579529
180.017	0.579529
181.017	0.579834