File: Edgar/20240508/20240508/electrodeposition_pulsed_potential_20240508_B/data/OCP_3
Time (s)	WE(1).Potential (V)
5479.88	0.57373
5480.88	0.567627
5481.88	0.561523
5482.88	0.55603
5483.88	0.550842
5484.88	0.546265
5485.88	0.541687
5486.88	0.537415
5487.88	0.533447
5488.88	0.529785
5489.88	0.526123
5490.88	0.522766
5491.88	0.519714
5492.88	0.516968
5493.88	0.514221
5494.88	0.51178
5495.88	0.509338
5496.88	0.507202
5497.88	0.505066
5498.88	0.503235
5499.88	0.501404
5500.88	0.499878
5501.88	0.497955
5502.88	0.49646
5503.88	0.495056
5504.88	0.493774
5505.88	0.492554
5506.88	0.491272
5507.88	0.490204
5508.88	0.489197
5509.88	0.488373
5510.88	0.487579
5511.88	0.486847
5512.88	0.486176
5513.88	0.485535
5514.88	0.484985
5515.88	0.484436
5516.88	0.483917
5517.88	0.483459
5518.88	0.483002
5519.88	0.482605
5520.88	0.482269
5521.88	0.481903
5522.88	0.481628
5523.88	0.481323
5524.88	0.481079
5525.88	0.480835
5526.88	0.480621
5527.88	0.480438
5528.88	0.480255
5529.88	0.480072
5530.88	0.479919
5531.88	0.479767
5532.88	0.479645
5533.88	0.479523
5534.88	0.479431
5535.88	0.47937
5536.88	0.479309
5537.88	0.479218
5538.88	0.479156
5539.88	0.479126
5540.88	0.479095
5541.88	0.479034
5542.88	0.479034
5543.88	0.479004
5544.88	0.479004
5545.88	0.478973
5546.88	0.478943
5547.88	0.478943
5548.88	0.478943
5549.88	0.478943
5550.88	0.478973
5551.88	0.479004
5552.88	0.478973
5553.88	0.479004
5554.88	0.478973
5555.88	0.478943
5556.88	0.478973
5557.88	0.479095
5558.88	0.479248
5559.88	0.479401
5560.88	0.479523
5561.88	0.479706
5562.88	0.479767
5563.88	0.479767
5564.88	0.479767
5565.88	0.479767
5566.88	0.479828
5567.88	0.479858
5568.88	0.479828
5569.88	0.479797
5570.88	0.479828
5571.88	0.479858
5572.88	0.479889
5573.88	0.479858
5574.88	0.479828
5575.88	0.479858
5576.88	0.479889
5577.88	0.479858
5578.88	0.479858
5579.88	0.479889
5580.88	0.47995
5581.88	0.47998
5582.88	0.480042
5583.88	0.480103
5584.88	0.480133
5585.88	0.480164
5586.88	0.480194
5587.88	0.480194
5588.88	0.480286
5589.88	0.480621
5590.88	0.480957
5591.88	0.480896
5592.88	0.480896
5593.88	0.480865
5594.88	0.480835
5595.88	0.480835
5596.88	0.480835
5597.88	0.480835
5598.88	0.480835
5599.88	0.480835
5600.88	0.480835
5601.88	0.480896
5602.88	0.480927
5603.88	0.480957
5604.88	0.481018
5605.88	0.481049
5606.88	0.481079
5607.88	0.481171
5608.88	0.481201
5609.88	0.481232
5610.88	0.481232
5611.88	0.481262
5612.88	0.481293
5613.88	0.481262
5614.88	0.481293
5615.88	0.481262
5616.88	0.481293
5617.88	0.481354
5618.88	0.481384
5619.88	0.481415
5620.88	0.481506
5621.88	0.481537
5622.88	0.481567
5623.88	0.481567
5624.88	0.481598
5625.88	0.481628
5626.88	0.481628
5627.88	0.481628
5628.88	0.481659
5629.88	0.48172
5630.88	0.481812
5631.88	0.481964
5632.88	0.482086
5633.88	0.482208
5634.88	0.48233
5635.88	0.482452
5636.88	0.482483
5637.88	0.482483
5638.88	0.482452
5639.88	0.482483
5640.88	0.482483
5641.88	0.482513
5642.88	0.482544
5643.88	0.482574
5644.88	0.482574
5645.88	0.482605
5646.88	0.482666
5647.88	0.482697
5648.88	0.482697
5649.88	0.482727
5650.88	0.482758
5651.88	0.482697
5652.88	0.482697
5653.88	0.482727
5654.88	0.482727
5655.88	0.482727
5656.88	0.482727
5657.88	0.482727
5658.88	0.482758