File: Edgar/20240508/20240508/electrodeposition_pulsed_potential_20240508_B/data/pulses_1000_to_2000.txt
Time (s)	WE(1).Potential (V)	WE(1).Current (A)
1506.43	-0.696747	-0.0182861
1510.79	0.579865	9.76562e-07
1515.11	0.580963	-1.04065e-05
1519.45	-0.698151	-0.0129089
1523.81	0.579834	8.54492e-07
1528.13	0.579865	-1.86157e-06
1532.47	-0.697968	-0.0099823
1536.83	0.580322	-3.08228e-06
1541.15	0.581329	-1.29089e-05
1545.49	-0.698517	-0.00834045
1549.85	0.580536	-2.99072e-06
1554.17	0.579926	-5.00488e-06
1558.53	0.000732422	0.0108063
1562.87	0.579895	-2.13623e-07
1567.19	0.579895	-2.19727e-06
1571.55	0.00194397	0.00699829
1575.89	0.579834	1.83105e-07
1580.21	0.580048	-6.16455e-06
1584.57	0.00187988	0.00443665
1588.91	0.581146	-8.8501e-06
1593.23	0.580933	-9.765625E-06
1597.59	0.00184021	0.00259949
1601.93	0.579987	-6.10352e-07
1606.25	0.58136	-1.42822e-05
1610.63	0.580963	0.00894165
1614.95	0.579834	3.05176e-08
1619.27	0.580231	-7.59888e-06
1623.65	0.579834	9.63135e-05
1627.97	0.580475	-6.46973e-06
1632.29	0.581055	-1.22375e-05
1636.67	0.579956	4.6936e-05
1640.99	0.579926	-1.31226e-06
1645.31	0.581238	-1.26038e-05
1649.69	0.579956	3.15552e-05
1654.01	0.580536	-5.37109e-06
1658.33	0.581024	-1.11084e-05
1662.71	0.581055	1.26038e-05
1667.03	0.581329	-1.35193e-05
1671.35	0.581177	-1.37024e-05
1675.73	0.579926	1.60828e-05
1680.05	0.579956	-3.60107e-06
1684.37	0.579773	-2.47192e-06
1688.75	0.580383	9.27734e-06
1693.07	0.579742	-2.53296e-06
1697.39	0.581238	-1.48621e-05
1701.77	0.580719	4.36401e-06
1706.09	0.581146	-1.11084e-05
1710.41	0.579987	-4.88281e-06
1714.79	0.580444	6.13403e-06
1719.11	0.580078	-3.54004e-06
1723.43	0.580566	-8.30078e-06
1727.81	0.58075	5.18799e-07
1732.13	0.580811	-6.56128e-06
1736.45	0.579895	-4.73022e-06
1740.83	0.579987	6.56128e-06
1745.15	0.581299	-1.15051e-05
1749.47	0.579926	-4.15039e-06
1753.85	0.581268	-6.01196e-06
1758.17	0.581207	-1.03149e-05
1762.49	0.580383	-9.06372e-06
1766.87	0.580597	-1.28174e-06
1771.19	0.579956	-2.59399e-06
1775.53	-0.696747	-0.0195648
1779.89	0.580353	-3.05176e-06
1784.21	0.580231	-7.20215e-06
1788.55	-0.697327	-0.0144623
1792.91	0.581299	-8.60596e-06
1797.23	0.58136	-1.37634e-05
1801.57	-0.697479	-0.0112793
1805.93	0.581146	-7.04956e-06
1810.25	0.581146	-1.06506e-05
1814.59	-0.698395	-0.00934448
1818.95	0.579987	3.44849e-06
1823.27	0.579834	-2.34985e-06
1827.63	0.00174866	0.0108093
1831.97	0.581177	-8.57544e-06
1836.29	0.579803	-1.2207e-06
1840.65	0.000552368	0.00739441
1844.99	0.580261	-3.78418e-06
1849.31	0.580536	-7.96509e-06
1853.67	0.0014679	0.00500763
1858.01	0.579742	3.05176e-08
1862.33	0.581268	-1.32751e-05
1866.69	0.00178833	0.00320984
1871.03	0.581024	-7.87354e-06
1875.35	0.580017	-6.68335e-06
1879.73	0.580017	0.0122955
1884.05	0.581146	-1.03149e-05
1888.37	0.581146	-1.33972e-05
1892.75	0.579956	0.000209381
1897.07	0.581177	-1.03149e-05
1901.39	0.579834	-2.56348e-06
1905.77	0.580933	5.18799e-05
1910.09	0.581024	-9.39941e-06
1914.41	0.581146	-1.37939e-05
1918.79	0.579803	3.67432e-05
1923.11	0.579865	-1.31226e-06
1927.43	0.579803	-2.7771e-06
1931.81	0.580048	2.4231e-05
1936.13	0.579926	-1.31226e-06
1940.45	0.580994	-1.36108e-05
1944.83	0.579803	2.01111e-05
1949.15	0.580322	-5.98145e-06
1953.47	0.581207	-1.34583e-05
1957.85	0.580444	9.52148e-06
1962.17	0.579987	-1.61743e-06
1966.49	0.579865	-2.92969e-06
1970.87	0.580017	1.24817e-05
1975.19	0.581268	-1.18408e-05
1979.51	0.581146	-1.10779e-05
1983.89	0.580566	5.52368e-06
1988.21	0.580688	-9.3689e-06
1992.53	0.579987	-4.15039e-06
1996.91	0.580963	9.15527e-08
2001.23	0.580627	-9.15527e-06
2005.55	0.579865	-4.69971e-06
2009.93	0.579895	5.49316e-06
2014.25	0.580719	-8.60596e-06
2018.57	0.581238	-1.23901e-05
2022.95	0.581268	-5.43213e-06
2027.27	0.579956	-3.38745e-06
2031.59	0.579956	-4.48608e-06
2035.97	0.579987	4.88281e-06
2040.29	0.580383	-8.23975e-06
2044.63	-0.697937	-0.020636
2048.99	0.581207	-5.64575e-06
2053.31	0.580566	-9.15527e-06
2057.65	-0.697113	-0.0156921
2062.01	0.5802	8.54492e-07
2066.33	0.579803	-2.34985e-06
2070.67	-0.697479	-0.012442
2075.03	0.579834	2.56348e-06
2079.35	0.580048	-4.79126e-06
2083.69	-0.698029	-0.0102905
2088.05	0.580811	-2.22778e-06
2092.37	0.580933	-9.91821e-06
2096.73	0.000650024	0.0105896
2101.07	0.579956	5.18799e-07
2105.39	0.579956	-2.89917e-06
2109.75	0.00106201	0.00748047
2114.09	0.579956	-3.05176e-07
2118.41	0.580933	-7.32422e-06
2122.77	0.00198059	0.00527161
2127.11	0.579987	-7.93457e-07
2131.43	0.581146	-1.23291e-05
2135.79	0.00072937	0.00358307
2140.13	0.581238	-1.13831e-05
2144.45	0.580139	-4.76074e-06
2148.83	0.580414	0.0137634
2153.15	0.581055	-1.08032e-05
2157.47	0.580078	-2.53296e-06
2161.85	0.580475	0.000791626
2166.17	0.581329	-9.58252e-06
2170.49	0.579834	-2.80762e-06
2174.87	0.581299	8.74634e-05
2179.19	0.580658	-7.53784e-06
2183.51	0.581116	-1.34277e-05
2187.89	0.580902	3.91235e-05
2192.21	0.580261	-4.36401e-06
2196.53	0.580841	-1.22375e-05
2200.91	0.581238	1.92871e-05
2205.23	0.58078	-6.83594e-06
2209.55	0.580322	-7.47681e-06
2213.93	0.579956	1.94092e-05
2218.25	0.581177	-9.30786e-06
2222.57	0.580627	-1.2085e-05
2226.95	0.580688	9.42993e-06
2231.27	0.580048	-8.23975e-07
2235.59	0.580444	-7.17163e-06
2239.97	0.580688	7.08008e-06
2244.29	0.579773	4.57764e-07
2248.61	0.580933	-1.2085e-05
2252.99	0.580994	1.83105e-06
2257.31	0.579803	-1.12915e-06
2261.63	0.579895	-3.72314e-06
2266.01	0.580933	-9.15527e-08
2270.33	0.579803	-1.77002e-06
2274.65	0.581329	-1.36108e-05
2279.03	0.58136	-3.17383e-06
2283.35	0.581238	-1.17798e-05
2287.67	0.579773	-3.84521e-06
2292.05	0.579773	6.56128e-06
2296.37	0.581024	-1.04675e-05
2300.69	0.579742	-2.44141e-06
2305.07	0.580078	1.70898e-06
2309.39	0.580963	-1.02234e-05
2313.73	-0.697632	-0.0213409
2318.09	0.580994	-4.08936e-06
2322.41	0.579773	-2.83813e-06
2326.75	-0.69809	-0.0165588
2331.11	0.581268	-5.79834e-06
2335.43	0.580017	-1.25122e-06
2339.77	-0.698334	-0.013327
2344.13	0.58017	9.76562e-07
2348.45	0.580597	-6.46973e-06
2352.79	-0.698517	-0.0110687
2357.15	0.580048	1.00708e-06
2361.47	0.581055	-1.3916e-05
2365.83	0.000961304	0.0103821
2370.17	0.579834	1.52588e-06
2374.49	0.579773	-2.13623e-06
2378.85	0.00135803	0.00752258
2383.19	0.580139	-1.0376e-06
2387.51	0.581146	-1.49536e-05
2391.87	0.00071106	0.00547058
2396.21	0.581055	-7.69043e-06
2400.53	0.581329	-1.38245e-05
2404.89	0.000839233	0.00386139
2409.23	0.580872	-6.56128e-06
2413.55	0.581268	-1.41602e-05
2417.93	0.579742	0.0147491
2422.25	0.580536	-3.8147e-06
2426.57	0.581116	-1.41907e-05
2430.95	0.581238	0.00302002
2435.27	0.581055	-8.88062e-06
2439.59	0.579956	-5.5542e-06
2443.97	0.580872	0.000215118
2448.29	0.579834	6.71387e-07
2452.61	0.581268	-1.32141e-05
2456.99	0.581238	5.56641e-05
2461.31	0.580719	-7.1106e-06
2465.63	0.58075	-1.2207e-05
2470.01	0.581238	2.50244e-05
2474.33	0.581116	-1.12915e-05
2478.65	0.580109	-3.78418e-06
2483.03	0.580933	1.87683e-05
2487.35	0.58075	-7.08008e-06
2491.67	0.579865	-2.68555e-06
2496.05	0.58139	8.94165e-06
2500.37	0.579834	-1.83105e-06
2504.69	0.579834	-3.26538e-06
2509.07	0.579895	1.57471e-05
2513.39	0.579895	-1.46484e-06
2517.71	0.581177	-1.26648e-05
2522.09	0.581238	2.62451e-06
2526.41	0.580109	-1.25122e-06
2530.73	0.579834	-2.99072e-06
2535.11	0.579865	1.01929e-05
2539.43	0.580292	-3.05176e-06
2543.75	0.58078	-8.54492e-06
2548.13	0.579956	7.1106e-06
2552.45	0.580353	-5.06592e-06
2556.77	0.580078	-5.0354e-06
2561.15	0.579865	6.83594e-06
2565.47	0.580811	-8.05664e-06
2569.79	0.581421	-1.41602e-05
2574.17	0.581268	-5.52368e-06
2578.49	0.580231	-5.15747e-06
2582.83	-0.697723	-0.0218933
2587.19	0.579895	3.35693e-06
2591.51	0.5802	-3.66211e-06
2595.85	-0.698029	-0.0172699
2600.21	0.580963	-3.63159e-06
2604.53	0.580353	-5.85937e-06
2608.87	-0.696686	-0.0140991
2613.23	0.580902	-3.66211e-06
2617.55	0.580841	-1.19019e-05
2621.89	-0.696991	-0.011795
2626.25	0.579895	2.16675e-06
2630.57	0.581177	-1.15967e-05
2634.93	0.000317383	0.0100677
2639.27	0.580933	-5.58472e-06
2643.59	0.580261	-5.58472e-06
2647.95	0.00158081	0.00741882
2652.29	0.580841	-6.5918e-06
2656.61	0.58078	-1.11694e-05
2660.97	0.00130615	0.00547302
2665.31	0.580719	-3.26538e-06
2669.63	0.580017	-3.87573e-06
2673.99	0.00106812	0.00394928
2678.33	0.581116	-8.3313e-06
2682.65	0.580322	-7.23267e-06
2687.03	0.579102	0.0153656
2691.35	0.579956	1.52588e-07
2695.67	0.580933	-1.36414e-05
2700.05	0.580719	0.00751953
2704.37	0.581116	-8.39233e-06
2708.69	0.581055	-1.16882e-05
2713.07	0.579895	0.000465363
2717.39	0.580627	-6.53076e-06
2721.71	0.581207	-1.26038e-05
2726.09	0.58078	0.000118652
2730.41	0.580719	-4.21143e-06
2734.73	0.580017	-4.39453e-06
2739.11	0.580688	4.776e-05
2743.43	0.579895	-1.06812e-06
2747.75	0.579956	-3.05176e-06
2752.13	0.581116	2.12402e-05
2756.45	0.581146	-1.09253e-05
2760.78	0.581329	-1.42822e-05
2765.16	0.581177	1.47705e-05
2769.48	0.581055	-9.82666e-06
2773.8	0.580658	-7.08008e-06
2778.18	0.581055	7.26318e-06
2782.5	0.580627	-6.68335e-06
2786.82	0.580078	-3.84521e-06
2791.2	0.580139	1.15662e-05
2795.52	0.579742	-2.10571e-06
2799.84	0.580292	-5.15747e-06
2804.22	0.581238	9.15527e-08
2806.4	0.581177	-1.07117e-05