File: Edgar/20240508/20240508/electrodeposition_pulsed_potential_20240508_B/data/pulses_0_to_1000.txt
Time (s)	WE(1).Potential (V)	WE(1).Current (A)
181.93	-0.69873	-0.00482544
186.29	0.581299	-1.21765e-05
190.61	0.58075	-1.06201e-05
194.95	-0.697601	-0.00422424
199.31	0.580231	-2.80762e-06
203.63	0.580902	-1.21765e-05
207.97	-0.698151	-0.00433838
212.33	0.581268	-9.85718e-06
216.65	0.580627	-7.65991e-06
220.99	-0.697327	-0.00443665
225.35	0.580078	-2.68555e-06
229.67	0.580078	-6.56128e-06
234.03	0.000878906	0.00155487
238.37	0.580566	-7.32422e-06
242.69	0.580475	-8.78906e-06
247.05	0.00185547	0.000219269
251.39	0.579956	-1.80054e-06
255.71	0.58075	-1.0376e-05
260.07	0.00108032	5.3009e-05
264.41	0.581238	-1.35193e-05
268.73	0.580292	-9.21631e-06
273.09	0.00170593	-1.31226e-05
277.43	0.580353	-4.88281e-06
281.75	0.580902	-1.40991e-05
286.13	0.580505	8.59375E-05
290.45	0.580688	-1.00403e-05
294.77	0.5802	-9.27734e-06
299.15	0.579926	3.25623e-05
303.47	0.579987	-2.71606e-06
307.79	0.5802	-6.40869e-06
312.17	0.580017	1.67236e-05
316.49	0.581299	-1.41296e-05
320.81	0.580597	-9.67407e-06
325.19	0.581238	9.15527e-08
329.51	0.581268	-1.09863e-05
333.83	0.581085	-1.33057e-05
338.21	0.581146	-3.2959e-06
342.53	0.579956	-2.68555e-06
346.85	0.580048	-5.95093e-06
351.23	0.581299	-7.44629e-06
355.55	0.580627	-1.01624e-05
359.87	0.579926	-4.5166e-06
364.25	0.580292	-3.17383e-06
368.57	0.581024	-1.3092e-05
372.89	0.579895	-4.45557e-06
377.27	0.580261	-7.01904e-07
381.59	0.581085	-1.23596e-05
385.91	0.580048	-6.40869e-06
390.29	0.58078	-4.73022e-06
394.61	0.581268	-1.57776e-05
398.93	0.580414	-9.33838e-06
403.31	0.5802	-1.92261e-06
407.63	0.581207	-1.4679e-05
411.95	0.579865	-4.02832e-06
416.33	0.581146	-9.30786e-06
420.65	0.581268	-1.52893e-05
424.97	0.580048	-5.43213e-06
429.35	0.579895	-6.71387e-07
433.67	0.580688	-1.01929e-05
437.99	0.580994	-1.40991e-05
442.37	0.580231	-3.32642e-06
446.69	0.580963	-1.06812e-05
451.03	-0.698425	-0.00947266
455.39	0.580261	-6.22559e-06
459.71	0.580902	-1.07117e-05
464.05	-0.698212	-0.00646606
468.41	0.580597	-8.66699e-06
472.73	0.580353	-6.46973e-06
477.07	-0.698181	-0.00539886
481.43	0.580048	-4.88281e-06
485.75	0.579895	-3.41797e-06
490.09	-0.69751	-0.00490173
494.45	0.580658	-7.14111e-06
498.77	0.581329	-1.37024e-05
503.13	0.000732422	0.00726227
507.47	0.581177	-1.27869e-05
511.79	0.58136	-1.42212e-05
516.15	0.00202637	0.00199585
520.49	0.579834	-5.46265e-06
524.81	0.580627	-9.91821e-06
529.17	0.000653076	0.000398712
533.51	0.579803	-2.16675e-06
537.83	0.58075	-1.09253e-05
542.19	0.000695801	7.51648e-05
546.53	0.581238	-1.44958e-05
550.85	0.580444	-1.00403e-05
555.23	0.58078	9.86938e-05
559.55	0.579803	-2.50244e-06
563.87	0.580902	-1.22681e-05
568.25	0.580292	3.45154e-05
572.57	0.579834	-2.62451e-06
576.89	0.58136	-1.54419e-05
581.27	0.580383	1.29089e-05
585.59	0.580811	-1.19019e-05
589.91	0.581238	-1.39771e-05
594.29	0.580017	1.16577e-05
598.61	0.581177	-1.3092e-05
602.93	0.579803	-4.97437e-06
607.31	0.580444	3.87573e-06
611.63	0.58017	-4.82178e-06
615.95	0.579926	-8.30078e-06
620.33	0.580322	8.54492e-07
624.65	0.580811	-1.02539e-05
628.97	0.580261	-1.12305e-05
633.35	0.579895	3.2959e-06
637.67	0.580017	-3.84521e-06
641.99	0.580994	-1.26343e-05
646.37	0.580444	-1.98364e-06
650.69	0.58139	-1.43127e-05
655.01	0.579803	-4.63867e-06
659.39	0.581024	-7.2937e-06
663.71	0.579865	-2.56348e-06
668.03	0.580383	-9.12476e-06
672.41	0.579956	8.54492e-07
676.73	0.580505	-7.8125e-06
681.05	0.580933	-1.21765e-05
685.43	0.579834	-2.0752e-06
689.75	0.581055	-1.32446e-05
694.07	0.580505	-8.45337e-06
698.45	0.581238	-1.16577e-05
702.77	0.580841	-1.14441e-05
707.09	0.579895	-4.30298e-06
711.47	0.581238	-1.07117e-05
715.79	0.581177	-1.34583e-05
720.13	-0.698364	-0.0114899
724.49	0.581146	-1.04675e-05
728.81	0.580811	-8.45337e-06
733.15	-0.697174	-0.00763245
737.51	0.579773	-2.13623e-07
741.83	0.580109	-5.5542e-06
746.17	-0.698059	-0.00617523
750.53	0.580322	-3.9978e-06
754.85	0.581299	-1.58386e-05
759.19	-0.698517	-0.00547424
763.55	0.580597	-7.2937e-06
767.87	0.580566	-8.39233e-06
772.23	0.000784302	0.00881958
776.57	0.581238	-1.15051e-05
780.89	0.579895	-2.86865e-06
785.25	0.00193481	0.00374207
789.59	0.579895	-2.28882e-06
793.91	0.579987	-3.93677e-06
798.27	0.00160522	0.00118805
802.61	0.58017	-3.90625e-06
806.931	0.581329	-1.48315e-05
811.291	0.00134888	0.000329041
815.631	0.581329	-1.25732e-05
819.951	0.581329	-1.42517e-05
824.331	0.580841	0.000119812
828.651	0.581116	-1.21765e-05
832.971	0.579865	-2.47192e-06
837.351	0.580231	4.32739e-05
841.671	0.581177	-1.31226e-05
845.991	0.581177	-1.33057e-05
850.371	0.581055	1.75171e-05
854.691	0.581024	-1.19324e-05
859.011	0.580811	-1.23291e-05
863.391	0.579834	1.68762e-05
867.711	0.579987	-3.63159e-06
872.031	0.581207	-1.16882e-05
876.411	0.580017	1.12305e-05
880.731	0.58139	-1.51978e-05
885.051	0.580566	-9.06372e-06
889.431	0.580719	3.60107e-06
893.751	0.580078	-5.5542e-06
898.071	0.581207	-1.3855e-05
902.451	0.579803	8.45337e-06
906.771	0.581299	-1.26343e-05
911.091	0.581024	-1.37634e-05
915.471	0.581085	-3.9978e-06
919.791	0.581024	-1.12e-05
924.111	0.581055	-1.47095e-05
928.491	0.581116	-5.24902e-06
932.811	0.580322	-5.92041e-06
937.131	0.580414	-8.08716e-06
941.511	0.580261	-6.40869e-07
945.831	0.581207	-1.15662e-05
950.151	0.581085	-1.52588e-05
954.531	0.580963	-4.45557e-06
958.851	0.58075	-9.15527e-06
963.171	0.581024	-1.43127e-05
967.551	0.581299	-9.73511e-06
971.871	0.580719	-1.0437e-05
976.191	0.581299	-1.41296e-05
980.571	0.580902	-6.40869e-06
984.891	0.581116	-1.28174e-05
989.231	-0.698151	-0.01409
993.591	0.581177	-9.42993e-06
997.911	0.579956	-2.89917e-06
1002.25	-0.698273	-0.00933533
1006.61	0.579834	-1.5564e-06
1010.93	0.579926	-3.41797e-06
1015.27	-0.697388	-0.00736176
1019.63	0.581207	-1.16882e-05
1023.95	0.580383	-8.45337e-06
1028.29	-0.698517	-0.00638489
1032.65	0.581177	-1.05896e-05
1036.97	0.580505	-1.07117e-05
1041.33	0.000418091	0.0100006
1045.67	0.58075	-7.23267e-06
1049.99	0.580536	-8.45337e-06
1054.35	0.00203552	0.00534546
1058.69	0.579987	-1.40381e-06
1063.01	0.580444	-1.0376e-05
1067.37	0.00085144	0.00246124
1071.71	0.579926	-5.18799e-07
1076.03	0.580963	-1.171875E-05
1080.39	0.000784302	0.00100586
1084.73	0.580017	-2.16675e-06
1089.05	0.581116	-1.17493e-05
1093.43	0.579773	0.000186249
1097.75	0.580292	-4.94385e-06
1102.07	0.579865	-4.18091e-06
1106.45	0.580902	4.80347e-05
1110.77	0.580688	-7.01904e-06
1115.09	0.579865	-4.88281e-06
1119.47	0.580963	2.3468e-05
1123.79	0.579865	-5.27954e-06
1128.11	0.579926	-3.17383e-06
1132.49	0.579987	1.75781e-05
1136.81	0.579956	-2.16675e-06
1141.13	0.580139	-6.37817e-06
1145.51	0.580414	1.171875E-05
1149.83	0.579803	-2.7771e-06
1154.15	0.58075	-8.81958e-06
1158.53	0.580048	8.91113e-06
1162.85	0.580353	-5.7373e-06
1167.17	0.581177	-1.32751e-05
1171.55	0.580536	3.44849e-06
1175.87	0.580811	-9.06372e-06
1180.19	0.580048	-6.34766e-06
1184.57	0.579834	7.69043e-06
1188.89	0.581268	-1.37024e-05
1193.21	0.580292	-6.16455e-06
1197.59	0.580017	3.90625e-06
1201.91	0.580872	-1.15662e-05
1206.23	0.581207	-1.43738e-05
1210.61	0.579895	4.21143e-06
1214.93	0.581146	-1.29089e-05
1219.25	0.580566	-8.57544e-06
1223.63	0.580048	3.35693e-06
1227.95	0.5802	-5.46265e-06
1232.27	0.58075	-1.2085e-05
1236.65	0.581299	-7.93457e-06
1240.97	0.579926	-5.0354e-06
1245.29	0.581055	-1.2146e-05
1249.67	0.579742	2.56348e-06
1253.99	0.580139	-5.40161e-06
1258.33	-0.698151	-0.0165253
1262.69	0.579834	1.61743e-06
1267.01	0.579834	-3.50952e-06
1271.35	-0.697571	-0.0113342
1275.71	0.580658	-4.3335e-06
1280.03	0.581055	-9.91821e-06
1284.37	-0.698639	-0.00875244
1288.73	0.579834	5.49316e-07
1293.05	0.581024	-1.1322e-05
1297.39	-0.698517	-0.00740875
1301.75	0.581268	-9.82666e-06
1306.07	0.580292	-6.62231e-06
1310.43	0.00184631	0.0106506
1314.77	0.581207	-1.0437e-05
1319.09	0.579895	-2.19727e-06
1323.45	0.00177002	0.00645844
1327.79	0.580383	-4.05884e-06
1332.11	0.580322	-7.38525e-06
1336.47	0.00133362	0.00371765
1340.81	0.580139	-2.10571e-06
1345.13	0.580322	-5.21851e-06
1349.49	0.000830078	0.00192047
1353.83	0.579865	-8.23975e-07
1358.15	0.580933	-1.34277e-05
1362.53	0.580139	0.000516663
1366.85	0.580719	-7.08008e-06
1371.17	0.580841	-1.11694e-05
1375.55	0.581055	6.67419e-05
1379.87	0.580688	-6.65283e-06
1384.19	0.580963	-1.40686e-05
1388.57	0.580475	3.54919e-05
1392.89	0.579926	9.15527e-08
1397.21	0.580872	-1.20239e-05
1401.59	0.581268	1.60217e-05
1405.91	0.581116	-9.58252e-06
1410.23	0.580566	-9.85718e-06
1414.61	0.580048	1.68762e-05
1418.93	0.581055	-1.06506e-05
1423.25	0.58139	-1.474e-05
1427.63	0.581268	5.31006e-06
1431.95	0.581024	-1.20239e-05
1436.27	0.581268	-1.31226e-05
1440.65	0.580322	8.45337e-06
1444.97	0.579926	-2.41089e-06
1449.29	0.579895	-3.35693e-06
1453.67	0.581055	6.40869e-07
1457.99	0.581299	-1.52588e-05
1462.31	0.581268	-1.34277e-05
1466.69	0.579742	8.3313e-06
1471.01	0.580933	-1.02234e-05
1475.33	0.579834	-3.57056e-06
1479.71	0.58075	-4.27246e-07
1481.89	0.581268	-1.43433e-05