File: Edgar/20240531/20240531/electrodeposition_pulsed_potential_20240531_A/OCP_3
Time (s)	WE(1).Potential (V)
5885.34	0.465759
5886.34	0.453156
5887.34	0.443817
5888.34	0.436981
5889.34	0.432037
5890.34	0.428558
5891.34	0.426178
5892.34	0.424622
5893.34	0.423676
5894.34	0.423279
5895.34	0.423218
5896.34	0.423431
5897.34	0.423859
5898.34	0.424469
5899.34	0.425201
5900.34	0.425995
5901.34	0.426849
5902.34	0.427704
5903.34	0.428619
5904.34	0.429565
5905.34	0.430481
5906.34	0.431396
5907.34	0.432312
5908.34	0.433258
5909.34	0.434174
5910.34	0.435089
5911.34	0.436005
5912.34	0.436859
5913.34	0.437714
5914.34	0.438568
5915.34	0.439392
5916.34	0.440186
5917.34	0.440979
5918.34	0.441772
5919.34	0.442505
5920.34	0.443207
5921.34	0.443909
5922.34	0.44455
5923.34	0.445221
5924.34	0.445831
5925.34	0.446472
5926.34	0.447113
5927.34	0.447723
5928.34	0.448334
5929.34	0.448944
5930.34	0.449463
5931.34	0.449951
5932.34	0.450439
5933.34	0.450928
5934.34	0.451385
5935.34	0.451874
5936.34	0.452332
5937.34	0.452759
5938.34	0.453186
5939.34	0.453644
5940.34	0.454071
5941.34	0.454468
5942.34	0.454865
5943.34	0.455231
5944.34	0.455566
5945.34	0.455902
5946.34	0.456238
5947.34	0.456543
5948.34	0.456787
5949.34	0.457062
5950.34	0.457336
5951.34	0.457611
5952.34	0.457886
5953.34	0.458099
5954.34	0.458344
5955.34	0.458557
5956.34	0.458801
5957.34	0.458984
5958.34	0.459198
5959.34	0.459442
5960.34	0.459625
5961.34	0.459808
5962.34	0.459991
5963.34	0.460144
5964.34	0.460266
5965.34	0.460449
5966.34	0.460602
5967.34	0.460724
5968.34	0.460907
5969.34	0.461029
5970.34	0.461182
5971.34	0.461304
5972.34	0.461426
5973.34	0.461548
5974.34	0.46167
5975.34	0.461792
5976.34	0.461945
5977.34	0.462036
5978.34	0.462097
5979.34	0.462219
5980.34	0.462311
5981.34	0.462372
5982.34	0.462494
5983.34	0.462555
5984.34	0.462677
5985.34	0.462769
5986.34	0.46283
5987.34	0.462921
5988.34	0.463013
5989.34	0.463074
5990.34	0.463165
5991.34	0.463196
5992.34	0.463287
5993.34	0.463348
5994.34	0.46344
5995.34	0.463531
5996.34	0.463593
5997.34	0.463654
5998.34	0.463715
5999.34	0.463776
6000.34	0.463806
6001.34	0.463867
6002.34	0.463928
6003.34	0.463959
6004.34	0.463989
6005.34	0.46402
6006.34	0.464081
6007.34	0.464111
6008.34	0.464172
6009.34	0.464233
6010.34	0.464264
6011.34	0.464294
6012.34	0.464325
6013.34	0.464355
6014.34	0.464386
6015.34	0.464417
6016.34	0.464447
6017.34	0.464478
6018.34	0.464508
6019.34	0.464478
6020.34	0.464508
6021.34	0.464508
6022.34	0.464539
6023.34	0.464539
6024.34	0.4646
6025.34	0.4646
6026.34	0.464661
6027.34	0.464661
6028.34	0.464691
6029.34	0.464752
6030.34	0.464752
6031.34	0.464813
6032.34	0.464874
6033.34	0.464905
6034.34	0.464966
6035.34	0.464996
6036.34	0.465057
6037.34	0.465118
6038.34	0.465149
6039.34	0.465179
6040.34	0.465179
6041.34	0.46521
6042.34	0.46524
6043.34	0.465271
6044.34	0.465332
6045.34	0.465363
6046.34	0.465393
6047.34	0.465454
6048.34	0.465454
6049.34	0.465454
6050.34	0.465485
6051.34	0.465485
6052.34	0.465485
6053.34	0.465515
6054.34	0.465546
6055.34	0.465576
6056.34	0.465637
6057.34	0.465637
6058.34	0.465698
6059.34	0.465729
6060.34	0.465759
6061.34	0.46579
6062.34	0.46582
6063.34	0.465851
6064.34	0.465851