File: Edgar/20240531/20240531/electrodeposition_pulsed_potential_20240531_A/OCP_1
Time (s)	WE(1).Potential (V)
3.59277	0.46405
4.59277	0.464203
5.59277	0.464355
6.59277	0.464539
7.59277	0.464691
8.59277	0.464813
9.59277	0.464966
10.5928	0.465118
11.5928	0.465271
12.5928	0.465424
13.5928	0.465576
14.5928	0.465729
15.5928	0.465881
16.5928	0.466003
17.5928	0.466156
18.5928	0.466309
19.5928	0.466431
20.5928	0.466583
21.5928	0.466736
22.5928	0.466858
23.5928	0.46701
24.5928	0.467133
25.5928	0.467285
26.5928	0.467407
27.5928	0.46756
28.5928	0.467712
29.5928	0.467834
30.5928	0.467957
31.5928	0.468109
32.5928	0.468231
33.5928	0.468384
34.5928	0.468506
35.5928	0.468658
36.5928	0.468781
37.5928	0.468903
38.5928	0.469055
39.5928	0.469177
40.5928	0.46933
41.5928	0.469482
42.5928	0.469604
43.5928	0.469727
44.5928	0.469849
45.5928	0.469971
46.5928	0.470093
47.5928	0.470215
48.5928	0.470337
49.5928	0.470459
50.5928	0.470612
51.5928	0.470734
52.5928	0.470856
53.5928	0.470978
54.5928	0.4711
55.5928	0.471191
56.5928	0.471313
57.5928	0.471436
58.5928	0.471558
59.5928	0.47168
60.5928	0.471802
61.5928	0.471924
62.5928	0.472046
63.5928	0.472137
64.5928	0.47226
65.5928	0.472382
66.5928	0.472504
67.5928	0.472626
68.5928	0.472717
69.5928	0.472839
70.5928	0.472961
71.5928	0.473083
72.5928	0.473175
73.5928	0.473297
74.5928	0.473419
75.5928	0.473511
76.5928	0.473633
77.5928	0.473724
78.5928	0.473846
79.5928	0.473969
80.5928	0.47406
81.5928	0.474182
82.5928	0.474274
83.5928	0.474213
84.5928	0.474274
85.5928	0.474365
86.5928	0.474487
87.5928	0.474609
88.5928	0.474701
89.5928	0.474823
90.5928	0.474945
91.5928	0.475037
92.5928	0.475159
93.5928	0.47525
94.5928	0.475372
95.5928	0.475494
96.5928	0.475616
97.5928	0.475708
98.5928	0.4758
99.5928	0.475922
100.593	0.476013
101.593	0.476135
102.593	0.476227
103.593	0.476318
104.593	0.47644
105.593	0.476532
106.593	0.476624
107.593	0.476746
108.593	0.476837
109.593	0.476929
110.593	0.477051
111.593	0.477142
112.593	0.477234
113.593	0.477325
114.593	0.477448
115.593	0.477539
116.593	0.477631
117.593	0.477722
118.593	0.477814
119.593	0.477905
120.593	0.477997
121.593	0.478119
122.593	0.47821
123.593	0.478302
124.593	0.478394
125.593	0.478485
126.593	0.478577
127.593	0.478668
128.593	0.47879
129.593	0.478882
130.593	0.478973
131.593	0.479065
132.593	0.479156
133.593	0.479248
134.593	0.47934
135.593	0.479431
136.593	0.479523
137.593	0.479645
138.593	0.479706
139.593	0.479797
140.593	0.479889
141.593	0.47998
142.593	0.480072
143.593	0.480164
144.593	0.480255
145.593	0.480347
146.593	0.480438
147.593	0.48053
148.593	0.480621
149.593	0.480713
150.593	0.480804
151.593	0.480896
152.593	0.480988
153.593	0.481079
154.593	0.481171
155.593	0.481262
156.593	0.481323
157.593	0.481415
158.593	0.481506
159.593	0.481598
160.593	0.481689
161.593	0.481781
162.593	0.481842
163.593	0.481934
164.593	0.482025
165.593	0.482117
166.593	0.482208
167.593	0.482269
168.593	0.482361
169.593	0.482452
170.593	0.482544
171.593	0.482635
172.593	0.482727
173.593	0.482849
174.593	0.482941
175.593	0.483032
176.593	0.483154
177.593	0.483246
178.593	0.483368
179.593	0.483459
180.593	0.483582
181.593	0.483704
182.593	0.483795