File: Edgar/20240531/20240531/electrodeposition_pulsed_potential_20240531_A/pulses_5000_to_6000.txt
Time (s)	WE(1).Potential (V)	WE(1).Current (A)
3747.02	-0.697571	-0.0240662
3749.38	0.482483	0.00839844
3751.7	0.483948	2.02026e-05
3754.04	-0.699188	-0.0205719
3756.4	0.484222	0.00564392
3758.72	0.48288	2.56958e-05
3761.06	-0.697845	-0.0179291
3763.42	0.482605	0.000945129
3765.74	0.483063	2.50244e-05
3768.08	-0.697662	-0.0158783
3770.44	0.484467	0.000330475
3772.76	0.482697	2.42615e-05
3775.12	-0.000878906	0.00668243
3777.46	0.484406	0.000159729
3779.78	0.482819	2.13928e-05
3782.14	0.000912476	0.00554474
3784.48	0.484253	9.74121e-05
3786.8	0.484344	1.28174e-05
3789.16	-0.000344849	0.00465271
3791.5	0.483093	7.27539e-05
3793.82	0.483551	1.70593e-05
3796.18	0.000650024	0.00387909
3798.52	0.482758	5.70374e-05
3800.84	0.483704	9.85718e-06
3803.22	0.482239	0.0154053
3805.54	0.482605	4.7821e-05
3807.86	0.483154	1.62659e-05
3810.24	0.483765	0.0128357
3812.56	0.484406	2.88086e-05
3814.88	0.483368	1.36414e-05
3817.26	0.483276	0.010672
3819.58	0.484436	2.32849e-05
3821.92	-0.698578	-0.0242004
3824.28	0.482391	0.00856934
3826.6	0.482849	3.04565e-05
3828.94	-0.698914	-0.0206635
3831.3	0.484222	0.00595917
3833.62	0.484283	1.80664e-05
3835.96	-0.69754	-0.0180359
3838.32	0.483917	0.00108185
3840.64	0.483765	1.87073e-05
3842.98	-0.697815	-0.0159821
3845.34	0.482788	0.000380524
3847.66	0.483002	2.19116e-05
3850.02	-0.000558472	0.00659424
3852.36	0.482758	0.000187897
3854.68	0.484497	1.3092e-05
3857.04	0.000921631	0.00547363
3859.38	0.484344	0.0001026
3861.7	0.482697	2.32239e-05
3864.06	-0.000424194	0.00459717
3866.4	0.483887	7.14111e-05
3868.72	0.484009	1.35498e-05
3871.08	-0.000769043	0.00384308
3873.42	0.483063	5.88989e-05
3875.74	0.482788	1.96533e-05
3878.12	0.483337	0.0154053
3880.44	0.484375	3.84521e-05
3882.76	0.484375	9.73511e-06
3885.14	0.483032	0.0128906
3887.46	0.482758	4.11682e-05
3889.78	0.483795	9.3689e-06
3892.16	0.483887	0.0107361
3894.48	0.484222	2.41089e-05
3896.82	-0.697632	-0.0242767
3899.18	0.482849	0.00866699
3901.5	0.483917	2.33765e-05
3903.84	-0.698029	-0.0207703
3906.2	0.483887	0.00617065
3908.52	0.484406	1.80969e-05
3910.86	-0.699066	-0.0181335
3913.22	0.482697	0.00123962
3915.54	0.48291	2.5177e-05
3917.88	-0.69931	-0.016095
3920.24	0.482697	0.000419525
3922.56	0.483337	2.03857e-05
3924.92	-0.000735474	0.00651184
3927.26	0.482819	0.000203278
3929.58	0.482941	2.02942e-05
3931.94	-0.000515747	0.00542023
3934.28	0.482727	0.000121948
3936.6	0.482727	2.21863e-05
3938.96	-0.000534058	0.0045459
3941.3	0.484314	7.12891e-05
3943.62	0.482849	1.953125E-05
3945.98	-0.000775146	0.00380341
3948.32	0.484436	5.1178e-05
3950.64	0.483704	1.40991e-05
3953.02	0.483429	0.0154144
3955.34	0.484375	3.90015e-05
3957.66	0.483093	1.66931e-05
3960.04	0.483032	0.0129181
3962.36	0.48291	4.05579e-05
3964.68	0.482605	1.97449e-05
3967.06	0.483917	0.0108063
3969.38	0.483154	3.34473e-05
3971.72	-0.698914	-0.0243073
3974.08	0.483917	0.00876465
3976.4	0.484283	2.24609e-05
3978.74	-0.699036	-0.0208374
3981.1	0.482605	0.00636383
3983.42	0.483643	2.37122e-05
3985.76	-0.699097	-0.0182343
3988.12	0.4841	0.0014093
3990.44	0.482788	2.948e-05
3992.78	-0.69928	-0.0161896
3995.14	0.484406	0.000446686
3997.46	0.484375	1.27869e-05
3999.82	1.83105e-05	0.00641113
4002.16	0.483063	0.000218475
4004.48	0.483215	2.05078e-05
4006.84	0.00078125	0.00533417
4009.18	0.483917	0.000123016
4011.5	0.483521	1.63879e-05
4013.86	-0.000549316	0.00448456
4016.2	0.484192	7.82471e-05
4018.52	0.482971	1.94092e-05
4020.88	-0.000518799	0.00375061
4023.22	0.483978	5.75256e-05
4025.54	0.483765	1.26038e-05
4027.92	0.483276	0.0154053
4030.24	0.483276	4.52576e-05
4032.56	0.482788	1.81885e-05
4034.94	0.483368	0.0129578
4037.26	0.483185	4.05273e-05
4039.58	0.484375	7.41577e-06
4041.96	0.482178	0.0108734
4044.28	0.482666	3.80249e-05
4046.62	-0.698456	-0.0243317
4048.98	0.483856	0.00885315
4051.3	0.482574	3.31421e-05
4053.64	-0.697266	-0.0209137
4056	0.482544	0.0065155
4058.32	0.483734	2.20337e-05
4060.66	-0.6987	-0.0183228
4063.02	0.483856	0.00158295
4065.34	0.483215	2.50244e-05
4067.68	-0.698181	-0.0163055
4070.04	0.483124	0.000496979
4072.36	0.483948	1.75476e-05
4074.72	-0.000585937	0.00633179
4077.06	0.483215	0.000233704
4079.38	0.48288	2.36206e-05
4081.74	-0.000164795	0.00526703
4084.08	0.484314	0.000130676
4086.4	0.483978	1.42517e-05
4088.76	0.000671387	0.00441559
4091.1	0.48291	9.12476e-05
4093.42	0.482666	2.09961e-05
4095.78	-6.71387e-05	0.00370972
4098.12	0.483917	5.9906e-05
4100.44	0.484344	9.0332e-06
4102.82	0.482605	0.0154205
4105.14	0.482788	5.53284e-05
4107.46	0.482727	2.09656e-05
4109.84	0.483429	0.012973
4112.16	0.482819	4.36707e-05
4114.48	0.483063	1.58997e-05
4116.86	0.483948	0.0109161
4119.18	0.484192	2.89917e-05
4121.52	-0.69873	-0.0243835
4123.88	0.48233	0.00895081
4126.2	0.48291	3.32642e-05
4128.54	-0.697296	-0.020993
4130.9	0.483215	0.00667175
4133.22	0.482819	3.01514e-05
4135.56	-0.697662	-0.0184326
4137.92	0.482605	0.00184723
4140.24	0.484406	1.79443e-05
4142.58	-0.697754	-0.016391
4144.94	0.483917	0.000541077
4147.26	0.484192	1.86157e-05
4149.62	0.000765991	0.00623993
4151.96	0.483612	0.00025296
4154.28	0.483032	2.28271e-05
4156.64	0.000650024	0.00520264
4158.98	0.483215	0.00014447
4161.3	0.483856	1.50757e-05
4163.66	0.000881958	0.0043634
4166	0.484375	8.69446e-05
4168.32	0.484283	1.09253e-05
4170.68	-0.000335693	0.00366364
4173.02	0.482941	7.12585e-05
4175.34	0.484344	1.18713e-05
4177.72	0.483215	0.0154205
4180.04	0.482849	5.42297e-05
4182.36	0.484406	7.69043e-06
4184.74	0.483826	0.0130127
4187.06	0.482697	4.66309e-05
4189.38	0.484344	8.27026e-06
4191.76	0.483612	0.0109741
4194.08	0.48407	2.92358e-05
4196.42	-0.697205	-0.0244354
4198.78	0.482178	0.0090271
4201.1	0.482697	3.56445e-05
4203.44	-0.697357	-0.0210632
4205.8	0.483368	0.00679993
4208.12	0.483032	3.16467e-05
4210.46	-0.697479	-0.0185059
4212.82	0.483673	0.00210083
4215.14	0.482819	2.6947e-05
4217.48	-0.699066	-0.0164825
4219.84	0.484344	0.00057373
4222.16	0.483551	2.0874e-05
4224.52	-0.000466919	0.00620483
4226.86	0.483124	0.000267395
4229.18	0.482819	2.36511e-05
4231.54	0.0006073	0.00516388
4233.88	0.483398	0.000151428
4236.2	0.484192	1.43127e-05
4238.56	-9.15527e-06	0.00434784
4240.9	0.484192	9.021e-05
4243.22	0.483154	1.7395e-05
4245.58	0.000814819	0.00364227
4247.92	0.482819	7.20825e-05
4250.24	0.48407	1.18103e-05
4252.62	0.482941	0.0154449
4254.94	0.483063	5.46875e-05
4257.26	0.48291	1.953125E-05
4259.64	0.483215	0.0130585
4261.96	0.482758	4.53796e-05
4264.28	0.484283	8.5144e-06
4266.66	0.483124	0.0110107
4268.98	0.484406	2.85034e-05
4271.32	-0.698761	-0.0244232
4273.68	0.483917	0.00906982
4276	0.483887	2.81677e-05
4278.34	-0.698181	-0.0210724
4280.7	0.483459	0.00682587
4283.02	0.482788	3.2196e-05
4285.36	-0.69873	-0.0185486
4287.72	0.483795	0.0020462
4290.04	0.483459	2.40479e-05
4292.38	-0.69809	-0.0165314
4294.74	0.482727	0.000602417
4297.06	0.484375	1.54114e-05
4299.42	0.0003479	0.00614532
4301.76	0.484406	0.000273285
4304.08	0.484314	1.43127e-05
4306.44	-0.000805664	0.00512207
4308.78	0.484192	0.000150757
4311.1	0.483521	1.72729e-05
4313.46	0.000778198	0.00429779
4315.8	0.483643	9.87244e-05
4318.12	0.48288	2.36206e-05
4320.48	0.000927734	0.00360535
4322.82	0.482758	7.66907e-05
4325.14	0.483429	1.61743e-05
4327.52	0.481964	0.0154602
4329.84	0.483459	5.24902e-05
4332.16	0.482819	2.04468e-05
4334.54	0.483459	0.0130768
4336.86	0.483978	3.92456e-05
4339.18	0.484283	9.0332e-06
4341.56	0.482666	0.0110657
4343.88	0.482727	4.10461e-05
4346.22	-0.698303	-0.0244598
4348.58	0.482391	0.00913086
4350.9	0.483673	2.77405e-05
4353.24	-0.698639	-0.0211395
4355.6	0.484192	0.00693542
4357.92	0.484009	2.40173e-05
4360.26	-0.699188	-0.0186127
4362.62	0.483063	0.00232849
4364.94	0.483826	2.15454e-05
4367.28	-0.699097	-0.0166077
4369.64	0.484131	0.0006427
4371.96	0.483673	1.89209e-05
4374.32	0.000250244	0.00606476
4376.66	0.482727	0.000304779
4378.98	0.482697	2.48718e-05
4381.34	0.000738525	0.005047
4383.68	0.483002	0.000171906
4386	0.483612	1.70898e-05
4388.36	0.000891113	0.00424469
4390.7	0.484344	0.000100433
4393.02	0.482941	2.03247e-05
4395.38	0.000604248	0.00356506
4397.72	0.482819	7.92542e-05
4400.04	0.483582	1.72729e-05
4402.42	0.482483	0.0154602
4404.74	0.483704	5.56641e-05
4407.06	0.482727	1.9928e-05
4409.44	0.483643	0.0130981
4411.76	0.482697	4.92249e-05
4414.08	0.484344	7.84302e-06
4416.46	0.482971	0.0111145
4418.78	0.482819	4.0741e-05
4421.12	-0.697205	-0.0245056
4423.48	0.482697	0.0092041
4425.8	0.484375	2.60315e-05
4428.14	-0.698853	-0.0211975
4430.5	0.484222	0.00705383
4432.82	0.484344	2.28882e-05
4435.16	-0.698242	-0.0187073
4437.52	0.482758	0.0027002
4439.84	0.482819	2.93884e-05
4442.18	-0.698914	-0.0167175
4444.54	0.4841	0.000693359
4446.86	0.483154	2.28271e-05
4446.98	0.484192	7.59888e-06