File: Edgar/20240531/20240531/electrodeposition_pulsed_potential_20240531_A/pulses_3000_to_4000.txt
Time (s)	WE(1).Potential (V)	WE(1).Current (A)
2321.5	-0.697479	-0.0221069
2323.86	0.484253	0.000645142
2326.18	0.484314	9.49097e-06
2328.52	-0.697968	-0.0177368
2330.88	0.483124	0.000198303
2333.2	0.482605	1.9043e-05
2335.54	-0.699371	-0.0148895
2337.9	0.483826	9.94263e-05
2340.22	0.484375	6.7749e-06
2342.56	-0.699524	-0.0127563
2344.92	0.484161	6.26221e-05
2347.24	0.484375	6.43921e-06
2349.6	-0.00102539	0.00889282
2351.94	0.483551	4.97742e-05
2354.26	0.483704	1.09863e-05
2356.62	-0.000164795	0.00714844
2358.96	0.48288	4.3335e-05
2361.28	0.484436	4.73022e-06
2363.64	0.000912476	0.0057959
2365.98	0.484375	2.53296e-05
2368.3	0.483124	1.25122e-05
2370.66	-3.05176e-05	0.00467346
2373	0.482697	3.05786e-05
2375.32	0.484039	5.18799e-06
2377.7	0.482452	0.0145325
2380.02	0.482666	3.00598e-05
2382.34	0.483276	1.08032e-05
2384.72	0.482269	0.010968
2387.04	0.482697	2.54517e-05
2389.36	0.483521	7.53784e-06
2391.74	0.484009	0.0076416
2394.06	0.482788	2.37427e-05
2396.4	-0.69754	-0.0223053
2398.76	0.48288	0.00100311
2401.08	0.482758	2.12097e-05
2403.42	-0.699158	-0.0179504
2405.78	0.482727	0.000230804
2408.1	0.484344	1.00708e-05
2410.44	-0.698181	-0.0151398
2412.8	0.484314	0.000107452
2415.12	0.48291	1.86768e-05
2417.46	-0.699066	-0.012973
2419.82	0.483215	7.2113e-05
2422.14	0.483734	1.2207e-05
2424.5	-0.000479126	0.0087738
2426.84	0.484314	4.62036e-05
2429.16	0.482697	1.87683e-05
2431.52	-0.000680542	0.00708435
2433.86	0.482788	4.40369e-05
2436.18	0.483704	9.64355e-06
2438.54	-0.000698853	0.00577148
2440.88	0.48288	3.6499e-05
2443.2	0.482849	1.49231e-05
2445.56	0.0003479	0.00465942
2447.9	0.484039	2.37122e-05
2450.22	0.484375	3.96729e-06
2452.6	0.482635	0.0146759
2454.92	0.483337	2.35901e-05
2457.24	0.484009	6.04248e-06
2459.62	0.483032	0.0111847
2461.94	0.484192	1.66016e-05
2464.26	0.484009	4.5166e-06
2466.64	0.483704	0.00799255
2468.96	0.484222	1.50452e-05
2471.3	-0.6987	-0.0224701
2473.66	0.484222	0.00160095
2475.98	0.483673	1.44653e-05
2478.32	-0.699188	-0.0181732
2480.68	0.484192	0.000256683
2483	0.483429	1.62659e-05
2485.34	-0.699127	-0.0153534
2487.7	0.484192	0.00011792
2490.02	0.482758	2.03857e-05
2492.36	-0.699188	-0.0131927
2494.72	0.484161	7.27234e-05
2497.04	0.482697	2.04468e-05
2499.4	-0.000305176	0.00861816
2501.74	0.484253	4.90417e-05
2504.06	0.483978	1.08643e-05
2506.42	0.000527954	0.00698914
2508.76	0.482727	4.73328e-05
2511.08	0.483551	1.04065e-05
2513.44	0.000759888	0.00570801
2515.78	0.482788	3.79639e-05
2518.1	0.483124	1.48621e-05
2520.46	0.000384521	0.00463257
2522.8	0.484253	2.23389e-05
2525.12	0.48291	1.41296e-05
2527.5	0.482422	0.0147675
2529.82	0.482758	3.0304e-05
2532.14	0.482635	1.54419e-05
2534.52	0.483856	0.0113586
2536.84	0.483856	1.86462e-05
2539.16	0.483765	7.26318e-06
2541.54	0.482758	0.00831299
2543.86	0.483795	1.69373e-05
2546.2	-0.697357	-0.0226379
2548.56	0.484131	0.00292114
2550.88	0.484375	1.19324e-05
2553.22	-0.698334	-0.0183868
2555.58	0.483795	0.000300049
2557.9	0.48288	1.95618e-05
2560.24	-0.698334	-0.015564
2562.6	0.484344	0.000130951
2564.92	0.484283	9.3689e-06
2567.26	-0.697876	-0.0134216
2569.62	0.484253	7.84302e-05
2571.94	0.483765	1.26648e-05
2574.3	-0.00101929	0.00849609
2576.64	0.483673	5.70374e-05
2578.96	0.484222	6.2561e-06
2581.32	0.000585937	0.00689972
2583.66	0.484192	3.77197e-05
2585.98	0.483368	1.26343e-05
2588.34	-0.000137329	0.0056546
2590.68	0.483887	3.09753e-05
2593	0.484497	5.70679e-06
2595.36	-0.000167847	0.00459991
2597.7	0.483978	2.67334e-05
2600.02	0.484344	5.92041e-06
2602.4	0.483673	0.0148529
2604.72	0.484314	2.14233e-05
2607.04	0.484283	3.57056e-06
2609.42	0.482605	0.0115417
2611.74	0.483948	1.92261e-05
2614.06	0.482697	1.53503e-05
2616.44	0.483093	0.00856934
2618.76	0.483215	2.16675e-05
2621.1	-0.697906	-0.0227814
2623.46	0.482635	0.00429871
2625.78	0.484406	1.12305e-05
2628.12	-0.697815	-0.0185883
2630.48	0.484161	0.000357056
2632.8	0.483643	1.50146e-05
2635.14	-0.697754	-0.0157562
2637.5	0.484283	0.000141815
2639.82	0.483643	1.71814e-05
2642.16	-0.697998	-0.0136261
2644.52	0.484344	8.21228e-05
2646.84	0.483917	1.05286e-05
2649.2	-0.000744629	0.00836487
2651.54	0.484314	5.34973e-05
2653.86	0.483002	1.32446e-05
2656.22	-4.88281e-05	0.00681213
2658.56	0.483917	4.08325e-05
2660.88	0.482788	1.62659e-05
2663.24	0.000549316	0.00559601
2665.58	0.482788	4.12292e-05
2667.9	0.483276	1.2146e-05
2670.26	0.000234985	0.00456573
2672.6	0.482788	3.59802e-05
2674.92	0.484314	5.46265e-06
2677.3	0.482208	0.0149384
2679.62	0.483887	2.45361e-05
2681.94	0.484161	6.22559e-06
2684.32	0.483185	0.0116943
2686.64	0.484131	1.69067e-05
2688.96	0.483826	5.95093e-06
2691.34	0.483856	0.00881042
2693.66	0.483368	2.04163e-05
2696	-0.698578	-0.0229309
2698.36	0.482971	0.00512238
2700.68	0.484009	1.62354e-05
2703.02	-0.699005	-0.0187683
2705.38	0.483948	0.000428284
2707.7	0.484253	1.3092e-05
2710.04	-0.697754	-0.0159607
2712.4	0.484009	0.000162689
2714.72	0.483917	1.3092e-05
2717.06	-0.698364	-0.0138245
2719.42	0.483368	9.64966e-05
2721.74	0.483887	1.12e-05
2724.1	-3.35693e-05	0.00822144
2726.44	0.482849	6.82678e-05
2728.76	0.482666	1.9165e-05
2731.12	-0.000714111	0.00672089
2733.46	0.482758	5.21545e-05
2735.78	0.483643	1.2207e-05
2738.14	0.000790405	0.00552643
2740.48	0.483551	3.75977e-05
2742.8	0.483459	1.27258e-05
2745.16	-0.000570679	0.0045343
2747.5	0.482788	3.59497e-05
2749.82	0.482574	1.58386e-05
2752.2	0.483551	0.0149994
2754.52	0.483459	2.81677e-05
2756.84	0.482727	1.53198e-05
2759.22	0.4823	0.0118286
2761.54	0.482666	2.88086e-05
2763.86	0.483185	1.37329e-05
2766.24	0.48233	0.00903625
2768.56	0.484161	1.72424e-05
2770.9	-0.69751	-0.0230591
2773.26	0.48288	0.00565674
2775.58	0.484314	1.34583e-05
2777.92	-0.698059	-0.0189423
2780.28	0.484253	0.000519409
2782.6	0.484161	1.3916e-05
2784.94	-0.697815	-0.0161346
2787.3	0.484314	0.000179016
2789.62	0.482727	2.23083e-05
2791.96	-0.699341	-0.0139984
2794.32	0.484253	9.52454e-05
2796.64	0.48349	1.46484e-05
2799	0.000500488	0.00809326
2801.34	0.483765	6.57959e-05
2803.66	0.483093	1.60217e-05
2806.02	0.000109863	0.00662689
2808.36	0.484467	4.28162e-05
2810.68	0.484344	1.06812e-05
2813.04	-0.000415039	0.00547241
2815.38	0.48288	4.43726e-05
2817.7	0.482727	1.651e-05
2820.06	0.000646973	0.00448792
2822.4	0.484192	2.83813e-05
2824.72	0.483765	1.06201e-05
2827.1	0.482391	0.0150635
2829.42	0.48288	3.17078e-05
2831.74	0.482971	1.46484e-05
2834.12	0.482635	0.0119446
2836.44	0.484314	1.93481e-05
2838.76	0.483124	1.06812e-05
2841.14	0.482422	0.00922546
2843.46	0.483948	1.98364e-05
2845.8	-0.698059	-0.0231781
2848.16	0.482727	0.00608307
2850.48	0.483215	2.30713e-05
2852.82	-0.697571	-0.0191101
2855.18	0.483673	0.000636902
2857.5	0.483521	1.76086e-05
2859.84	-0.697815	-0.0163116
2862.2	0.484161	0.000203003
2864.52	0.484131	1.18713e-05
2866.86	-0.697968	-0.0141907
2869.22	0.483582	0.000106628
2871.54	0.48407	1.11694e-05
2873.9	-3.96729e-05	0.00797119
2876.24	0.482971	7.32422e-05
2878.56	0.482788	1.93787e-05
2880.92	0.000720215	0.0065329
2883.26	0.483368	5.48096e-05
2885.58	0.48288	1.78528e-05
2887.94	-0.000421143	0.00541351
2890.28	0.483063	4.26025e-05
2892.6	0.482727	1.68762e-05
2894.96	1.83105e-05	0.00444946
2897.3	0.48291	3.66821e-05
2899.62	0.483124	1.23901e-05
2902	0.483521	0.0151154
2904.32	0.483215	2.93579e-05
2906.64	0.48288	1.31531e-05
2909.02	0.483887	0.0120544
2911.34	0.484467	1.93787e-05
2913.66	0.484253	6.50024e-06
2916.04	0.483643	0.00940552
2918.36	0.482758	2.57874e-05
2920.7	-0.698853	-0.0232666
2923.06	0.484283	0.00641266
2925.38	0.483002	2.39868e-05
2927.72	-0.699219	-0.0192627
2930.08	0.482758	0.000784912
2932.4	0.483765	1.58997e-05
2934.74	-0.69928	-0.0164581
2937.1	0.482697	0.000238159
2939.42	0.483215	1.70593e-05
2941.76	-0.698364	-0.0143707
2944.12	0.482727	0.000124695
2946.44	0.483093	1.84937e-05
2948.8	-0.000930786	0.00784607
2951.14	0.483398	7.39136e-05
2953.46	0.484222	9.64355e-06
2955.82	0.000854492	0.00644226
2958.16	0.483521	5.24597e-05
2960.48	0.484344	8.72803e-06
2962.84	-0.00083313	0.00534393
2965.18	0.484406	3.53699e-05
2967.5	0.4841	8.63647e-06
2969.86	-0.000674438	0.00440308
2972.2	0.482758	4.03442e-05
2974.52	0.482666	1.38245e-05
2976.9	0.482544	0.0151672
2979.22	0.482971	3.02734e-05
2981.54	0.484344	7.04956e-06
2983.92	0.482208	0.0121613
2986.24	0.48291	2.92053e-05
2988.56	0.484283	5.7373e-06
2990.94	0.483093	0.00956421
2993.26	0.48288	2.73743e-05
2995.6	-0.69751	-0.0233765
2997.96	0.483582	0.00672607
3000.28	0.482788	2.50854e-05
3002.62	-0.698578	-0.0194214
3004.98	0.484161	0.000971375
3007.3	0.482666	2.37732e-05
3009.64	-0.698059	-0.0166321
3012	0.482849	0.000270081
3014.32	0.483246	1.85852e-05
3016.66	-0.698975	-0.0145172
3019.02	0.482971	0.000132172
3021.34	0.482697	2.22168e-05
3021.46	0.482941	1.23596e-05