File: Edgar/20240531/20240531/electrodeposition_pulsed_potential_20240531_A/pulses_1000_to_2000.txt
Time (s)	WE(1).Potential (V)	WE(1).Current (A)
895.834	-0.698303	-0.0165924
898.194	0.483154	6.35986e-05
900.514	0.483185	7.1106e-06
902.854	-0.699615	-0.0119659
905.214	0.484253	3.56445e-05
907.534	0.484253	-3.35693e-07
909.874	-0.699524	-0.00920715
912.234	0.483063	2.83508e-05
914.554	0.482666	1.1322e-05
916.894	-0.699951	-0.00750427
919.254	0.483673	1.96228e-05
921.574	0.482666	9.15527e-06
923.934	-0.000842285	0.0109009
926.274	0.483643	1.60522e-05
928.594	0.483704	4.63867e-06
930.954	-0.00083313	0.00768433
933.294	0.484009	1.14746e-05
935.614	0.482849	8.94165e-06
937.974	0.000631714	0.00540894
940.314	0.483032	1.20544e-05
942.634	0.483521	1.00708e-06
944.994	-0.000393677	0.00358612
947.334	0.483063	1.11694e-05
949.654	0.482574	1.11084e-05
952.034	0.484192	0.00802917
954.354	0.483246	9.97925e-06
956.674	0.482635	8.23975e-06
959.054	0.482849	0.000358887
961.374	0.483429	9.09424e-06
963.694	0.482819	6.43921e-06
966.074	0.483368	0.000126129
968.394	0.483154	1.03455e-05
970.734	-0.699371	-0.0167694
973.094	0.483734	6.64368e-05
975.414	0.484039	1.40381e-06
977.754	-0.698944	-0.0124023
980.114	0.483459	4.10461e-05
982.434	0.483978	2.13623e-06
984.774	-0.699615	-0.00958252
987.134	0.483337	3.15247e-05
989.454	0.482635	1.10168e-05
991.794	-0.699463	-0.00781555
994.154	0.483795	2.20032e-05
996.474	0.482849	9.0332e-06
998.834	-0.00115662	0.0108887
1001.17	0.483643	1.86157e-05
1003.49	0.482788	1.04675e-05
1005.85	9.15527e-05	0.00779419
1008.19	0.48407	1.10168e-05
1010.51	0.482758	7.62939e-06
1012.87	0.000244141	0.00556396
1015.21	0.482971	1.9104e-05
1017.53	0.484406	-3.05176e-07
1019.89	0.000961304	0.00378845
1022.23	0.483582	9.70459e-06
1024.55	0.482605	8.57544e-06
1026.93	0.483978	0.00885315
1029.25	0.484314	3.17383e-06
1031.57	0.482849	8.63647e-06
1033.95	0.483276	0.000439117
1036.27	0.484314	3.50952e-06
1038.59	0.483643	1.49536e-06
1040.97	0.482635	0.000146942
1043.29	0.484406	3.479e-06
1045.63	-0.697723	-0.0171692
1047.99	0.482605	8.06885e-05
1050.31	0.483185	1.0376e-05
1052.65	-0.69812	-0.0127899
1055.01	0.484222	4.18701e-05
1057.33	0.484314	1.09863e-06
1059.67	-0.6987	-0.00995483
1062.03	0.484344	2.65198e-05
1064.35	0.483215	7.90405e-06
1066.69	-0.699341	-0.00812988
1069.05	0.483124	2.81677e-05
1071.37	0.483368	6.5918e-06
1073.73	0.000402832	0.010849
1076.07	0.483673	1.97144e-05
1078.39	0.483215	8.5144e-06
1080.75	0.000579834	0.00783386
1083.09	0.483093	1.84021e-05
1085.41	0.483826	2.50244e-06
1087.77	-0.00055542	0.00568512
1090.11	0.482758	1.76697e-05
1092.43	0.483948	6.40869e-07
1094.79	0.000762939	0.00396179
1097.13	0.483124	1.23291e-05
1099.45	0.482941	8.45337e-06
1101.83	0.483887	0.00954285
1104.15	0.483032	1.60522e-05
1106.47	0.484039	7.32422e-07
1108.85	0.482788	0.000558167
1111.17	0.483704	7.32422e-06
1113.49	0.483246	5.7373e-06
1115.87	0.483643	0.000156952
1118.19	0.482758	1.43433e-05
1120.53	-0.699341	-0.0175446
1122.89	0.482483	8.71887e-05
1125.21	0.484131	3.20435e-06
1127.55	-0.69809	-0.0131775
1129.91	0.482697	5.88074e-05
1132.23	0.483124	8.54492e-06
1134.57	-0.699036	-0.010318
1136.93	0.483704	3.17688e-05
1139.25	0.482788	1.11084e-05
1141.59	-0.698669	-0.00843506
1143.95	0.482941	2.91748e-05
1146.27	0.484222	-1.43433e-06
1148.63	-0.000747681	0.0107819
1150.97	0.483124	2.24304e-05
1153.29	0.483276	9.61304e-06
1155.65	-0.000860596	0.00787964
1157.99	0.484253	1.29089e-05
1160.31	0.482727	7.62939e-06
1162.67	0.00100403	0.00577576
1165.01	0.48407	1.10474e-05
1167.33	0.483673	3.63159e-06
1169.69	-0.000253296	0.00410522
1172.03	0.482666	1.82495e-05
1174.35	0.483917	1.00708e-06
1176.73	0.483459	0.010144
1179.05	0.483704	1.00098e-05
1181.37	0.483521	4.18091e-06
1183.75	0.484039	0.000726013
1186.07	0.483887	7.84302e-06
1188.39	0.483002	8.42285e-06
1190.77	0.484436	0.000174957
1193.09	0.482758	1.57471e-05
1195.43	-0.698669	-0.0179321
1197.79	0.482666	9.48486e-05
1200.11	0.484497	2.92969e-06
1202.45	-0.698517	-0.0135376
1204.81	0.483978	5.11169e-05
1207.13	0.483276	8.91113e-06
1209.47	-0.698669	-0.0106873
1211.83	0.484283	3.20129e-05
1214.15	0.482635	1.45874e-05
1216.49	-0.699493	-0.00874329
1218.85	0.484375	2.23694e-05
1221.17	0.483612	4.73022e-06
1223.53	-0.00109558	0.0107056
1225.87	0.482605	2.7771e-05
1228.19	0.483582	2.71606e-06
1230.55	-0.000521851	0.00788574
1232.89	0.483368	1.92261e-05
1235.21	0.48291	8.94165e-06
1237.57	0.000408936	0.005849
1239.91	0.484283	1.05286e-05
1242.23	0.482941	8.27026e-06
1244.59	0.000802612	0.00422485
1246.93	0.483063	1.71814e-05
1249.25	0.483429	6.56128e-06
1251.63	0.482788	0.010672
1253.95	0.482605	1.7395e-05
1256.27	0.483185	7.26318e-06
1258.65	0.483704	0.00103607
1260.97	0.483032	1.5686e-05
1263.29	0.483032	6.50024e-06
1265.67	0.482758	0.000212067
1267.99	0.483643	9.552e-06
1270.33	-0.699127	-0.018277
1272.69	0.484161	9.19189e-05
1275.01	0.484222	2.92969e-06
1277.35	-0.699585	-0.0138794
1279.71	0.484314	5.40161e-05
1282.03	0.484192	4.63867e-06
1284.37	-0.698212	-0.0110107
1286.73	0.483307	4.21448e-05
1289.05	0.484131	3.84521e-06
1291.39	-0.699799	-0.00900879
1293.75	0.482849	3.48816e-05
1296.07	0.48288	9.46045e-06
1298.43	-0.00114136	0.0106323
1300.77	0.482941	2.70691e-05
1303.09	0.484283	1.52588e-07
1305.45	-0.000790405	0.00791321
1307.79	0.483429	2.06299e-05
1310.11	0.483856	2.99072e-06
1312.48	0.000671387	0.00591797
1314.82	0.483124	1.58386e-05
1317.14	0.483856	7.72095e-06
1319.5	-0.000531006	0.00433868
1321.84	0.483063	1.67542e-05
1324.16	0.484375	-1.70898e-06
1326.54	0.482391	0.0111298
1328.86	0.482666	1.84631e-05
1331.18	0.482727	1.04065e-05
1333.56	0.483551	0.00195374
1335.88	0.483582	7.84302e-06
1338.2	0.482788	1.04675e-05
1340.58	0.483582	0.000233643
1342.9	0.48288	1.6571e-05
1345.24	-0.698914	-0.0186127
1347.6	0.483917	0.000106232
1349.92	0.484222	3.38745e-06
1352.26	-0.698456	-0.0142029
1354.62	0.484009	6.3324e-05
1356.94	0.48288	9.49097e-06
1359.28	-0.698181	-0.0113342
1361.64	0.484467	3.94592e-05
1363.96	0.483276	7.99561e-06
1366.3	-0.698669	-0.0092926
1368.66	0.484253	2.76489e-05
1370.98	0.484039	1.58691e-06
1373.34	-0.000109863	0.010553
1375.68	0.482697	3.14941e-05
1378	0.482758	1.27258e-05
1380.36	0.000671387	0.00790405
1382.7	0.482605	2.62756e-05
1385.02	0.483765	6.16455e-06
1387.38	0.00057373	0.00596008
1389.72	0.483368	1.55029e-05
1392.04	0.48407	-6.40869e-07
1394.4	-0.00065918	0.00442688
1396.74	0.484467	1.09558e-05
1399.06	0.484528	-6.40869e-07
1401.44	0.483582	0.0115448
1403.76	0.483948	1.171875E-05
1406.08	0.483917	3.35693e-06
1408.46	0.484375	0.00445374
1410.78	0.484406	4.88281e-06
1413.1	0.484314	-9.15527e-07
1415.48	0.483215	0.000272522
1417.8	0.483948	6.92749e-06
1420.14	-0.697601	-0.0189697
1422.5	0.483582	0.000119019
1424.82	0.482758	1.48926e-05
1427.16	-0.699615	-0.0145203
1429.52	0.483002	7.2113e-05
1431.84	0.483154	1.31531e-05
1434.18	-0.69873	-0.0116577
1436.54	0.48288	5.16357e-05
1438.86	0.484375	2.13623e-06
1441.2	-0.698273	-0.00959473
1443.56	0.483704	3.45154e-05
1445.88	0.482758	1.24207e-05
1448.24	-0.000686646	0.0104614
1450.58	0.484375	2.19727e-05
1452.9	0.482941	1.00403e-05
1455.26	-0.000152588	0.00789795
1457.6	0.4841	1.79138e-05
1459.92	0.483887	3.87573e-06
1462.28	-0.000411987	0.00600677
1464.62	0.482941	2.33459e-05
1466.94	0.483734	3.87573e-06
1469.3	0.000982666	0.00449097
1471.64	0.484344	1.06812e-05
1473.96	0.483368	6.37817e-06
1476.34	0.483948	0.0119202
1478.66	0.482727	2.03552e-05
1480.98	0.483521	5.5542e-06
1483.36	0.483337	0.00582245
1485.68	0.484406	7.47681e-06
1488	0.482666	1.18103e-05
1490.38	0.483826	0.000316101
1492.7	0.484375	4.36401e-06
1495.04	-0.698822	-0.0192902
1497.4	0.482697	0.000137207
1499.72	0.484314	4.54712e-06
1502.06	-0.698975	-0.0148254
1504.42	0.483276	7.4646e-05
1506.74	0.483521	1.27258e-05
1509.08	-0.699677	-0.0119537
1511.44	0.482727	5.49927e-05
1513.76	0.482635	1.21765e-05
1516.1	-0.699127	-0.00986938
1518.46	0.482971	4.05579e-05
1520.78	0.482666	1.30615e-05
1523.14	0.000476074	0.0103394
1525.48	0.482971	3.09143e-05
1527.8	0.484192	9.76562e-07
1530.16	0.000665283	0.00786438
1532.5	0.482513	2.98462e-05
1534.82	0.483948	3.57056e-06
1537.18	0.000726318	0.00602722
1539.52	0.482666	2.70386e-05
1541.84	0.483795	3.32642e-06
1544.2	8.54492e-05	0.00455994
1546.54	0.484039	1.45569e-05
1548.86	0.483948	4.11987e-06
1551.24	0.48233	0.0122864
1553.56	0.4841	1.22681e-05
1555.88	0.483307	7.44629e-06
1558.26	0.482849	0.00671906
1560.58	0.482727	2.03552e-05
1562.9	0.484406	-4.57764e-07
1565.28	0.484222	0.000372589
1567.6	0.484222	7.65991e-06
1569.94	-0.698303	-0.019632
1572.3	0.483002	0.000147064
1574.62	0.482849	1.67847e-05
1576.96	-0.697845	-0.0151367
1579.32	0.482666	8.67615e-05
1581.64	0.483673	9.73511e-06
1583.98	-0.699005	-0.012262
1586.34	0.483459	5.40161e-05
1588.66	0.484558	1.80054e-06
1591	-0.699371	-0.0101532
1593.36	0.482849	4.48914e-05
1595.68	0.483978	5.09644e-06
1595.8	0.482666	1.15356e-05