File: Edgar/20240531/20240531/electrodeposition_pulsed_potential_20240531_A/pulses_0_to_1000.txt
Time (s)	WE(1).Potential (V)	WE(1).Current (A)
183.424	-0.6987	-0.00246521
185.784	0.483215	1.43738e-05
188.104	0.483093	3.60107e-06
190.444	-0.699554	-0.00181244
192.804	0.483337	1.47705e-05
195.124	0.484314	1.25122e-06
197.464	-0.698883	-0.00184082
199.824	0.484222	1.171875E-05
202.144	0.483398	6.28662e-06
204.484	-0.698761	-0.00195099
206.844	0.484467	1.43127e-05
209.164	0.483826	5.37109e-06
211.524	0.00120544	0.000504456
213.864	0.48288	2.74963e-05
216.184	0.484192	9.30786e-06
218.544	-0.000695801	0.000198608
220.884	0.483765	2.22778e-05
223.204	0.483521	1.39771e-05
225.564	0.00111389	0.000113403
227.904	0.484436	1.82495e-05
230.224	0.484436	8.05664e-06
232.584	-0.00055542	7.71484e-05
234.924	0.482941	2.53296e-05
237.244	0.482635	1.71814e-05
239.624	0.484467	0.000153687
241.944	0.484192	1.35803e-05
244.264	0.483368	1.34583e-05
246.644	0.484131	7.77283e-05
248.964	0.484467	7.99561e-06
251.284	0.484344	-9.46045e-07
253.664	0.484009	4.97131e-05
255.984	0.483582	1.22986e-05
258.324	-0.698669	-0.00726685
260.684	0.483185	3.72925e-05
263.004	0.483185	1.16882e-05
265.344	-0.6987	-0.00496063
267.704	0.484253	2.32849e-05
270.024	0.48407	2.50244e-06
272.364	-0.699921	-0.00406403
274.724	0.483398	2.15149e-05
277.044	0.483246	6.83594e-06
279.384	-0.698456	-0.00362579
281.744	0.482971	1.98975e-05
284.064	0.482788	7.65991e-06
286.424	0.000653076	0.00757751
288.764	0.482758	1.73035e-05
291.084	0.482849	8.69751e-06
293.444	0.000244141	0.00253479
295.784	0.48349	7.14111e-06
298.104	0.484497	-3.41797e-06
300.464	0.000738525	0.000618896
302.804	0.483795	8.23975e-06
305.124	0.483978	1.83105e-06
307.484	-0.000418091	0.000176971
309.824	0.483246	1.11084e-05
312.144	0.483215	3.23486e-06
314.524	0.482666	0.000214142
316.844	0.48291	1.17798e-05
319.164	0.484375	-4.54712e-06
321.544	0.484131	7.01904e-05
323.864	0.48288	8.48389e-06
326.184	0.483582	1.15967e-06
328.564	0.483337	4.22974e-05
330.884	0.484222	-1.67847e-06
333.224	-0.698517	-0.0101288
335.584	0.484436	2.17896e-05
337.904	0.482849	7.53784e-06
340.244	-0.69931	-0.00653778
342.604	0.483917	1.72729e-05
344.924	0.484406	-2.10571e-06
347.264	-0.699188	-0.00502197
349.624	0.482666	1.9104e-05
351.944	0.482788	7.75146e-06
354.284	-0.698395	-0.00423492
356.644	0.483856	9.58252e-06
358.964	0.482666	8.30078e-06
361.324	0.000646973	0.00931702
363.664	0.483246	9.3689e-06
365.984	0.484344	-3.60107e-06
368.344	-0.000582886	0.00467957
370.684	0.483612	8.36182e-06
373.004	0.483032	6.28662e-06
375.364	0.000762939	0.00172974
377.704	0.483307	7.84302e-06
380.024	0.482941	7.38525e-06
382.384	0.000723267	0.000552673
384.724	0.483978	2.68555e-06
387.044	0.484314	-4.57764e-06
389.424	0.482849	0.000305206
391.744	0.483246	7.44629e-06
394.064	0.482513	7.87354e-06
396.444	0.48349	8.83789e-05
398.764	0.483521	5.98145e-06
401.084	0.482788	6.13403e-06
403.464	0.482971	5.06287e-05
405.784	0.482697	9.00269e-06
408.124	-0.699799	-0.0116882
410.484	0.483093	3.09143e-05
412.804	0.484406	-2.44141e-06
415.144	-0.698486	-0.00763855
417.504	0.482819	2.41699e-05
419.824	0.483337	2.7771e-06
422.164	-0.698303	-0.00577209
424.524	0.482727	1.97144e-05
426.844	0.482483	7.23267e-06
429.184	-0.698547	-0.00477295
431.544	0.483307	1.13831e-05
433.864	0.48291	8.14819e-06
436.224	-0.0009765625	0.0100677
438.564	0.483887	4.45557e-06
440.884	0.483948	-1.70898e-06
443.244	0.00107117	0.00573944
445.584	0.483704	6.37817e-06
447.904	0.482635	6.83594e-06
450.264	0.00102539	0.00273804
452.604	0.482697	1.25427e-05
454.924	0.482788	5.67627e-06
457.284	0.000619507	0.00105743
459.624	0.48349	5.88989e-06
461.944	0.484344	-3.87573e-06
464.324	0.484375	0.00041568
466.644	0.484192	-5.49316e-07
468.964	0.482849	3.87573e-06
471.344	0.483063	0.000110077
473.664	0.48288	7.90405e-06
475.984	0.482788	5.7373e-06
478.364	0.484192	4.75769e-05
480.684	0.484009	2.13623e-07
483.024	-0.699432	-0.0128143
485.384	0.483643	3.25012e-05
487.704	0.48288	6.71387e-06
490.044	-0.699615	-0.00854492
492.404	0.483154	2.33765e-05
494.724	0.483673	3.60107e-06
497.064	-0.700012	-0.00642609
499.424	0.484314	9.765625E-06
501.744	0.482849	7.08008e-06
504.084	-0.700043	-0.00526154
506.444	0.482605	1.72119e-05
508.764	0.484253	-5.09644e-06
511.124	-0.000961304	0.0104767
513.464	0.483276	1.3916e-05
515.784	0.482635	6.65283e-06
518.145	0.000991821	0.00639282
520.485	0.484314	2.99072e-06
522.805	0.483917	8.23975e-07
525.165	0.00102844	0.00353729
527.505	0.484436	-4.27246e-07
529.825	0.483337	1.40381e-06
532.185	0.000723267	0.00159302
534.525	0.483948	2.56348e-06
536.845	0.482971	7.41577e-06
539.225	0.483459	0.000602112
541.545	0.484253	-6.71387e-07
543.865	0.483765	1.40381e-06
546.245	0.484344	0.000125336
548.565	0.483887	3.35693e-07
550.885	0.483093	8.8501e-07
553.265	0.484344	5.62439e-05
555.585	0.483734	3.17383e-06
557.925	-0.699341	-0.0137146
560.285	0.483124	3.93066e-05
562.605	0.484131	-7.01904e-07
564.945	-0.698975	-0.00935669
567.305	0.483673	2.12402e-05
569.625	0.483704	2.10571e-06
571.965	-0.698669	-0.00704559
574.325	0.482788	2.32849e-05
576.645	0.482758	7.53784e-06
578.985	-0.699829	-0.00574341
581.345	0.482697	1.83105e-05
583.665	0.483154	6.56128e-06
586.025	0.000384521	0.0107117
588.365	0.482971	1.25122e-05
590.685	0.483459	3.17383e-06
593.045	-5.49316e-05	0.00684875
595.385	0.484192	3.78418e-06
597.705	0.483765	-2.13623e-07
600.065	-0.00055542	0.00414856
602.405	0.483124	4.36401e-06
604.725	0.482666	3.87573e-06
607.085	0.000396729	0.00211823
609.425	0.484039	1.28174e-06
611.745	0.482727	5.37109e-06
614.125	0.484558	0.000911255
616.445	0.483826	4.54712e-06
618.765	0.482666	7.14111e-06
621.145	0.48407	0.000151245
623.465	0.483002	7.69043e-06
625.785	0.483429	1.5564e-06
628.165	0.483948	7.00378e-05
630.485	0.484283	-3.14331e-06
632.825	-0.699402	-0.0144836
635.185	0.483887	3.91541e-05
637.505	0.483673	3.08228e-06
639.845	-0.698334	-0.010083
642.205	0.482697	3.23792e-05
644.525	0.482971	6.53076e-06
646.865	-0.698608	-0.00761719
649.225	0.483032	2.12402e-05
651.545	0.483704	-2.13623e-07
653.885	-0.698334	-0.00620667
656.245	0.484375	9.70459e-06
658.565	0.483795	-8.54492e-07
660.925	0.000283813	0.0108521
663.265	0.48291	1.67236e-05
665.585	0.484161	-2.50244e-06
667.945	-1.2207e-05	0.00716705
670.285	0.483063	1.297e-05
672.605	0.484467	-4.5166e-06
674.965	0.000161743	0.00459442
677.305	0.483124	1.28784e-05
679.625	0.484497	-5.64575e-06
681.985	-0.000692749	0.00257538
684.325	0.482727	1.16882e-05
686.645	0.484344	-2.19727e-06
689.025	0.484558	0.00168121
691.345	0.483826	1.98364e-06
693.665	0.483643	-1.25122e-06
696.045	0.483917	0.000183655
698.365	0.482666	1.14441e-05
700.685	0.483246	3.20435e-06
703.065	0.484161	7.84302e-05
705.385	0.482727	1.08032e-05
707.725	-0.698059	-0.0151306
710.085	0.483093	5.00488e-05
712.405	0.484406	-3.11279e-06
714.745	-0.69931	-0.0107086
717.105	0.484314	2.67639e-05
719.425	0.484467	-3.44849e-06
721.765	-0.699799	-0.00811768
724.125	0.48288	2.62146e-05
726.445	0.482727	9.27734e-06
728.785	-0.698242	-0.00662384
731.145	0.484039	1.15051e-05
733.465	0.484222	-2.22778e-06
735.825	0.000698853	0.0109192
738.165	0.484467	6.65283e-06
740.485	0.484375	-4.02832e-06
742.845	-0.000726318	0.00739441
745.185	0.484253	5.88989e-06
747.505	0.482697	8.60596e-06
749.865	-0.000738525	0.00493195
752.205	0.48349	6.89697e-06
754.525	0.482635	6.7749e-06
756.885	0.000686646	0.00295166
759.225	0.483185	8.05664e-06
761.545	0.484131	-2.01416e-06
763.925	0.483459	0.00458466
766.245	0.483612	5.70679e-06
768.565	0.482819	6.98853e-06
770.945	0.483826	0.000224182
773.265	0.484344	-1.2207e-07
775.585	0.484161	-2.41089e-06
777.965	0.48291	9.79919e-05
780.285	0.483673	4.88281e-06
782.625	-0.698608	-0.0156982
784.985	0.482819	5.77393e-05
787.305	0.484375	-9.76562e-07
789.645	-0.697876	-0.0112823
792.005	0.482666	3.94592e-05
794.325	0.483368	3.90625e-06
796.665	-0.69989	-0.00860291
799.025	0.482635	3.20129e-05
801.345	0.482544	1.0498e-05
803.685	-0.699036	-0.0069989
806.045	0.482635	2.55127e-05
808.365	0.484406	-1.40381e-06
810.725	-0.00121765	0.0109467
813.065	0.484192	9.12476e-06
815.385	0.483521	7.23267e-06
817.745	-0.00057373	0.00755615
820.085	0.48407	7.78198e-06
822.405	0.483459	4.05884e-06
824.765	0.00062561	0.00517517
827.105	0.483459	6.43921e-06
829.425	0.484406	-2.31934e-06
831.785	-0.000601196	0.00327759
834.125	0.483887	5.88989e-06
836.445	0.483887	1.92261e-06
838.825	0.483398	0.00659515
841.145	0.483795	5.00488e-06
843.465	0.483032	5.52368e-06
845.845	0.484161	0.000267944
848.165	0.482941	9.64355e-06
850.485	0.482758	8.69751e-06
852.865	0.484375	9.87549e-05
855.185	0.483643	1.25122e-06
857.525	-0.698822	-0.0161713
859.885	0.483887	5.70984e-05
862.205	0.484344	2.74658e-07
864.545	-0.699493	-0.0117828
866.905	0.484131	3.48511e-05
869.225	0.484253	1.00708e-06
871.565	-0.698334	-0.00903931
873.925	0.482697	3.28979e-05
876.245	0.483063	6.7749e-06
878.585	-0.698639	-0.00735962
880.945	0.483795	1.71204e-05
883.265	0.484009	-5.49316e-07
883.385	0.482635	6.28662e-06