File: Edgar/20240531/20240531/electrodeposition_pulsed_potential_20240531_A/pulses_2000_to_3000.txt
Time (s)	WE(1).Potential (V)	WE(1).Current (A)
1608.82	-0.697449	-0.0198486
1611.18	0.482697	0.000150635
1613.5	0.483246	1.49841e-05
1615.84	-0.697998	-0.0152405
1618.2	0.483643	7.94983e-05
1620.52	0.484406	4.94385e-06
1622.86	-0.69812	-0.0123962
1625.22	0.484283	5.01404e-05
1627.54	0.482758	1.58997e-05
1629.88	-0.699738	-0.0102661
1632.24	0.484192	3.70789e-05
1634.56	0.483002	1.4679e-05
1636.92	-0.000726318	0.0101715
1639.26	0.482574	3.84216e-05
1641.58	0.484406	2.19727e-06
1643.94	-0.000741577	0.0078064
1646.28	0.482574	3.2196e-05
1648.6	0.484314	1.52588e-06
1650.96	-0.000769043	0.00604736
1653.3	0.482971	2.56958e-05
1655.62	0.484406	0
1657.98	0.000674438	0.00461578
1660.32	0.484283	1.29089e-05
1662.64	0.483093	8.78906e-06
1665.02	0.483673	0.0126862
1667.34	0.484314	9.8877e-06
1669.66	0.484222	8.23975e-07
1672.04	0.484222	0.00759888
1674.36	0.482727	2.11182e-05
1676.68	0.484131	7.62939e-07
1679.06	0.483032	0.000490967
1681.38	0.483002	1.67847e-05
1683.72	-0.697784	-0.0200378
1686.08	0.482727	0.000173187
1688.4	0.482727	1.68457e-05
1690.74	-0.699371	-0.0155243
1693.1	0.483917	8.70667e-05
1695.42	0.48288	1.63269e-05
1697.76	-0.698334	-0.012677
1700.12	0.482819	6.32629e-05
1702.44	0.48407	9.49097e-06
1704.78	-0.699677	-0.0105286
1707.14	0.482758	4.83398e-05
1709.46	0.483429	1.08032e-05
1711.82	-0.000521851	0.0100769
1714.16	0.483459	3.34167e-05
1716.48	0.484375	1.64795e-06
1718.84	0.000671387	0.00776672
1721.18	0.483673	2.36816e-05
1723.5	0.483398	9.97925e-06
1725.86	0.000247192	0.0060556
1728.2	0.482941	2.6947e-05
1730.52	0.483765	4.39453e-06
1732.88	-0.000454712	0.00467255
1735.22	0.483582	1.86157e-05
1737.54	0.484161	4.18091e-06
1739.92	0.482819	0.0129974
1742.24	0.484009	1.2207e-05
1744.56	0.483582	5.58472e-06
1746.94	0.484039	0.00818481
1749.26	0.483887	1.26648e-05
1751.58	0.483398	7.20215e-06
1753.96	0.483307	0.000628967
1756.28	0.483551	1.4679e-05
1758.62	-0.698822	-0.0203369
1760.98	0.483551	0.000187042
1763.3	0.48288	1.51062e-05
1765.64	-0.697815	-0.0158173
1768	0.482941	0.000101868
1770.32	0.482941	1.41907e-05
1772.66	-0.698853	-0.0129639
1775.02	0.4841	5.76782e-05
1777.34	0.483795	8.08716e-06
1779.68	-0.698151	-0.0108337
1782.04	0.482727	5.1178e-05
1784.36	0.483398	1.16882e-05
1786.72	-2.44141e-05	0.00993042
1789.06	0.484222	3.10974e-05
1791.38	0.484283	4.11987e-06
1793.74	-0.000540161	0.00773621
1796.08	0.483368	2.91748e-05
1798.4	0.484161	4.05884e-06
1800.76	0.000723267	0.0060498
1803.1	0.483765	2.23999e-05
1805.42	0.483398	7.50732e-06
1807.78	0.000836182	0.00469452
1810.12	0.483856	1.67847e-05
1812.44	0.483826	6.37817e-06
1814.82	0.483307	0.0132507
1817.14	0.484222	1.37939e-05
1819.46	0.483276	5.76782e-06
1821.84	0.482452	0.00868225
1824.16	0.483002	2.13013e-05
1826.48	0.483246	7.2937e-06
1828.86	0.484039	0.000891724
1831.18	0.483276	1.78223e-05
1833.52	-0.69751	-0.0206299
1835.88	0.483368	0.000212585
1838.2	0.483551	1.08948e-05
1840.54	-0.697968	-0.0161011
1842.9	0.482941	0.000109589
1845.22	0.483124	1.4801e-05
1847.56	-0.699463	-0.0132538
1849.92	0.483154	6.90613e-05
1852.24	0.483612	9.58252e-06
1854.58	-0.699036	-0.0111023
1856.94	0.483063	5.05981e-05
1859.26	0.483734	8.23975e-06
1861.62	0.00055542	0.0098053
1863.96	0.484192	3.2959e-05
1866.28	0.483246	1.01929e-05
1868.64	0.000201416	0.00766296
1870.98	0.484192	2.55737e-05
1873.3	0.483826	4.3335e-06
1875.66	0.000698853	0.00604156
1878	0.483582	2.3468e-05
1880.32	0.483948	7.01904e-06
1882.68	0.000872803	0.00471771
1885.02	0.483459	2.16675e-05
1887.34	0.484131	2.31934e-06
1889.72	0.482208	0.0134888
1892.04	0.483276	2.0752e-05
1894.36	0.484192	2.2583e-06
1896.74	0.483276	0.00910034
1899.06	0.484375	9.3689e-06
1901.38	0.484161	6.10352e-06
1903.76	0.483368	0.00163818
1906.08	0.48291	1.87683e-05
1908.42	-0.698242	-0.0209045
1910.78	0.484161	0.000233337
1913.1	0.483521	1.27563e-05
1915.44	-0.697571	-0.0163727
1917.8	0.482727	0.000118073
1920.12	0.484436	6.31714e-06
1922.46	-0.698792	-0.0135223
1924.82	0.482727	7.54395e-05
1927.14	0.483276	1.28174e-05
1929.48	-0.6987	-0.01138
1931.84	0.483215	5.31006e-05
1934.16	0.48288	1.61133e-05
1936.52	0.000735474	0.00966492
1938.86	0.483795	3.86658e-05
1941.18	0.483521	7.08008e-06
1943.54	-0.000799561	0.00761719
1945.88	0.482697	3.67737e-05
1948.2	0.484344	3.26538e-06
1950.56	0.000912476	0.00602051
1952.9	0.483612	2.38647e-05
1955.22	0.482574	1.50757e-05
1957.58	0.000210571	0.00473846
1959.92	0.483826	2.07825e-05
1962.24	0.482819	1.13831e-05
1964.62	0.482391	0.0136963
1966.94	0.48291	2.38342e-05
1969.26	0.483826	5.7373e-06
1971.64	0.484039	0.00948181
1973.96	0.483582	1.62964e-05
1976.28	0.483429	7.53784e-06
1978.66	0.48291	0.00371735
1980.98	0.483124	1.7395e-05
1983.32	-0.69873	-0.0211517
1985.68	0.482727	0.000278839
1988	0.482605	1.76086e-05
1990.34	-0.699432	-0.0166382
1992.7	0.482605	0.000131256
1995.02	0.483887	6.13403e-06
1997.36	-0.698242	-0.0138153
1999.72	0.484192	7.10449e-05
2002.04	0.483032	1.78833e-05
2004.38	-0.699707	-0.0116394
2006.74	0.48291	5.59387e-05
2009.06	0.484467	4.57764e-06
2011.42	0.000228882	0.00952454
2013.76	0.483215	4.09851e-05
2016.08	0.484131	6.46973e-06
2018.44	0.000604248	0.00752258
2020.78	0.482635	3.84827e-05
2023.1	0.4841	5.18799e-06
2025.46	-0.000213623	0.0060025
2027.8	0.483002	2.91443e-05
2030.12	0.483887	6.95801e-06
2032.48	0.00083313	0.00473511
2034.82	0.484039	1.94397e-05
2037.14	0.483643	8.81958e-06
2039.52	0.482117	0.0139069
2041.84	0.48288	2.29492e-05
2044.16	0.483124	9.73511e-06
2046.54	0.483429	0.00983887
2048.86	0.484161	1.32141e-05
2051.18	0.483612	4.57764e-06
2053.56	0.483917	0.00517059
2055.88	0.483368	1.50146e-05
2058.22	-0.698975	-0.0213837
2060.58	0.484192	0.000315826
2062.9	0.484375	8.66699e-06
2065.24	-0.69812	-0.0169067
2067.6	0.483826	0.000135223
2069.92	0.484406	7.1106e-06
2072.26	-0.697998	-0.0140686
2074.62	0.484253	7.53479e-05
2076.94	0.484344	5.82886e-06
2079.28	-0.697998	-0.0119141
2081.64	0.482635	6.10352e-05
2083.96	0.483948	7.41577e-06
2086.32	-0.000369263	0.00938416
2088.66	0.483917	4.01306e-05
2090.98	0.483185	1.23596e-05
2093.34	-0.000527954	0.00746063
2095.68	0.484253	2.72217e-05
2098	0.483795	9.64355e-06
2100.36	-0.000549316	0.00597168
2102.7	0.482697	3.31421e-05
2105.02	0.484009	3.08228e-06
2107.38	0.000473022	0.00473541
2109.72	0.484436	1.74866e-05
2112.04	0.483856	5.98145e-06
2114.42	0.483459	0.0140747
2116.74	0.484253	1.5564e-05
2119.06	0.483978	4.3335e-06
2121.44	0.483398	0.010144
2123.76	0.483368	2.16675e-05
2126.08	0.482788	1.27563e-05
2128.46	0.483887	0.00599609
2130.78	0.482788	2.05688e-05
2133.12	-0.698029	-0.0216278
2135.48	0.483643	0.000384552
2137.8	0.484192	1.13525e-05
2140.14	-0.699188	-0.0171539
2142.5	0.484344	0.000147034
2144.82	0.484283	7.99561e-06
2147.16	-0.697754	-0.014325
2149.52	0.482819	9.29565e-05
2151.84	0.484131	7.53784e-06
2154.18	-0.699371	-0.0121582
2156.54	0.48349	5.74951e-05
2158.86	0.484253	6.43921e-06
2161.22	0.000753784	0.00924683
2163.56	0.483948	3.80859e-05
2165.88	0.484375	4.85229e-06
2168.24	-0.000839233	0.00737274
2170.58	0.483398	3.66516e-05
2172.9	0.483246	9.12476e-06
2175.26	-0.000686646	0.00592499
2177.6	0.482727	3.4729e-05
2179.92	0.483521	1.10168e-05
2182.28	0.000289917	0.00472412
2184.62	0.483154	2.62451e-05
2186.94	0.482574	1.49841e-05
2189.32	0.483246	0.0142273
2191.64	0.484406	1.65405e-05
2193.96	0.483398	9.42993e-06
2196.34	0.483215	0.0104248
2198.66	0.483704	1.68762e-05
2200.98	0.484344	3.08228e-06
2203.36	0.483093	0.00662842
2205.68	0.483704	1.43433e-05
2208.02	-0.699036	-0.0218414
2210.38	0.483398	0.000494598
2212.7	0.484253	9.15527e-06
2215.04	-0.69928	-0.0173981
2217.4	0.482788	0.000173065
2219.72	0.483704	1.09558e-05
2222.06	-0.699463	-0.014566
2224.42	0.483673	9.1156e-05
2226.74	0.483368	1.32751e-05
2229.08	-0.697998	-0.0124207
2231.44	0.484253	5.71594e-05
2233.76	0.483673	8.91113e-06
2236.12	0.00027771	0.00909119
2238.46	0.483398	4.65393e-05
2240.78	0.483032	1.36719e-05
2243.14	-0.000350952	0.00728607
2245.48	0.483093	3.86963e-05
2247.8	0.484406	7.41577e-06
2250.16	0.000338745	0.00587799
2252.5	0.484528	2.41699e-05
2254.82	0.482788	1.44348e-05
2257.18	0.000286865	0.00471466
2259.52	0.484009	2.44751e-05
2261.84	0.483643	6.83594e-06
2264.22	0.483734	0.0143768
2266.54	0.483582	2.07825e-05
2268.86	0.483093	1.13525e-05
2271.24	0.483826	0.010675
2273.56	0.484253	1.54114e-05
2275.88	0.483429	7.87354e-06
2278.26	0.482422	0.00712189
2280.58	0.483246	2.05383e-05
2282.92	-0.697418	-0.022049
2285.28	0.48291	0.000649414
2287.6	0.484131	1.09253e-05
2289.94	-0.698578	-0.0176544
2292.3	0.483124	0.000192535
2294.62	0.483246	1.83105e-05
2296.96	-0.699402	-0.0148071
2299.32	0.483643	9.77783e-05
2301.64	0.484406	8.72803e-06
2303.98	-0.698425	-0.012677
2306.34	0.484039	6.17371e-05
2308.66	0.484222	7.93457e-06
2308.78	0.484467	3.90625e-06