File: Edgar/20240607/20240607/electrodeposition_pulsed_potential_20240607_F/OCP_1
Time (s)	WE(1).Potential (V)
2.03922	0.517273
3.03922	0.517578
4.03922	0.517883
5.03922	0.518494
6.03922	0.518799
7.03922	0.519104
8.03922	0.519714
9.03922	0.52002
10.0392	0.520325
11.0392	0.52063
12.0392	0.520935
13.0392	0.52124
14.0392	0.521545
15.0392	0.521851
16.0392	0.522156
17.0392	0.522461
18.0392	0.522766
19.0392	0.523071
20.0392	0.523376
21.0392	0.523376
22.0392	0.523682
23.0392	0.523682
24.0392	0.523987
25.0392	0.523682
26.0392	0.523376
27.0392	0.522766
28.0392	0.522156
29.0392	0.521851
30.0392	0.521545
31.0392	0.52124
32.0392	0.52124
33.0392	0.520935
34.0392	0.52063
35.0392	0.52002
36.0392	0.518799
37.0392	0.517273
38.0392	0.515747
39.0392	0.513611
40.0392	0.51178
41.0392	0.509338
42.0392	0.5078125
43.0392	0.506287
44.0392	0.504761
45.0392	0.504761
46.0392	0.505371
47.0392	0.505981
48.0392	0.506592
49.0392	0.507202
50.0392	0.5078125
51.0392	0.508423
52.0392	0.509033
53.0392	0.509644
54.0392	0.509949
55.0392	0.510559
56.0392	0.510864
57.0392	0.511475
58.0392	0.512085
59.0392	0.51239
60.0392	0.512695
61.0392	0.513306
62.0392	0.513611
63.0392	0.514221
64.0392	0.514526
65.0392	0.515137
66.0392	0.515747
67.0392	0.516052
68.0392	0.516357
69.0392	0.516968
70.0392	0.517273
71.0392	0.517883
72.0392	0.518188
73.0392	0.518494
74.0392	0.518799
75.0392	0.519409
76.0392	0.519714
77.0392	0.520325
78.0392	0.52063
79.0392	0.520935
80.0392	0.52124
81.0392	0.521851
82.0392	0.522156
83.0392	0.522461
84.0392	0.522766
85.0392	0.523071
86.0392	0.523376
87.0392	0.523682
88.0392	0.524292
89.0392	0.524597
90.0392	0.524902
91.0392	0.525208
92.0392	0.525513
93.0392	0.525818
94.0392	0.526123
95.0392	0.526733
96.0392	0.527039
97.0392	0.527344
98.0392	0.527649
99.0392	0.527954
100.039	0.528259
101.039	0.528564
102.039	0.52887
103.039	0.529175
104.039	0.52948
105.039	0.53009
106.039	0.530396
107.039	0.530701
108.039	0.531006
109.039	0.531311
110.039	0.531616
111.039	0.531616
112.039	0.531921
113.039	0.532227
114.039	0.532532
115.039	0.532837
116.039	0.533142
117.039	0.533447
118.039	0.533752
119.039	0.534058
120.039	0.534363
121.039	0.534668
122.039	0.534973
123.039	0.535278
124.039	0.535583
125.039	0.535583
126.039	0.535889
127.039	0.536194
128.039	0.536499
129.039	0.536804
130.039	0.537109
131.039	0.537109
132.039	0.537415
133.039	0.53772
134.039	0.53772
135.039	0.53833
136.039	0.53833
137.039	0.538635
138.039	0.53894
139.039	0.539246
140.039	0.539551
141.039	0.539551
142.039	0.539856
143.039	0.540161
144.039	0.540466
145.039	0.540771
146.039	0.540771
147.039	0.541077
148.039	0.541382
149.039	0.541687
150.039	0.541687
151.039	0.541992
152.039	0.542297
153.039	0.542297
154.039	0.542603
155.039	0.542908
156.039	0.543213
157.039	0.543213
158.039	0.543518
159.039	0.543823
160.039	0.543823
161.039	0.544128
162.039	0.544434
163.039	0.544739
164.039	0.544739
165.039	0.545044
166.039	0.545349
167.039	0.545349
168.039	0.545654
169.039	0.545959
170.039	0.545959
171.039	0.546265
172.039	0.546265
173.039	0.54657
174.039	0.546875
175.039	0.54718
176.039	0.54718
177.039	0.547485
178.039	0.547791
179.039	0.547791
180.039	0.548096
181.039	0.548096