File: Edgar/20240607/20240607/electrodeposition_pulsed_potential_20240607_F/OCP_3
Time (s)	WE(1).Potential (V)
3017.12	0.039032
3018.12	0.0575256
3019.12	0.0740356
3020.12	0.0891418
3021.12	0.102997
3022.12	0.115723
3023.12	0.12738
3024.12	0.138245
3025.12	0.148285
3026.12	0.157562
3027.12	0.166168
3028.12	0.174194
3029.12	0.181641
3030.12	0.188538
3031.12	0.195099
3032.12	0.201233
3033.12	0.20694
3034.12	0.212341
3035.12	0.217438
3036.12	0.222321
3037.12	0.226929
3038.12	0.231354
3039.12	0.235535
3040.12	0.239532
3041.12	0.243347
3042.12	0.247101
3043.12	0.250763
3044.12	0.254333
3045.12	0.25769
3046.12	0.260956
3047.12	0.264191
3048.12	0.267365
3049.12	0.270447
3050.12	0.273468
3051.12	0.276489
3052.12	0.27948
3053.12	0.28244
3054.12	0.285339
3055.12	0.288239
3056.12	0.291107
3057.12	0.293976
3058.12	0.296814
3059.12	0.299683
3060.12	0.302582
3061.12	0.305481
3062.12	0.30838
3063.12	0.311279
3064.12	0.314301
3065.12	0.317322
3066.12	0.320343
3067.12	0.323456
3068.12	0.326752
3069.12	0.329987
3070.12	0.333374
3071.12	0.336884
3072.12	0.340454
3073.12	0.344086
3074.12	0.347778
3075.12	0.3515625
3076.12	0.355377
3077.12	0.359161
3078.12	0.36319
3079.12	0.367493
3080.12	0.371643
3081.12	0.375824
3082.12	0.380096
3083.12	0.384308
3084.12	0.38855
3085.12	0.392792
3086.12	0.397003
3087.12	0.401184
3088.12	0.405396
3089.12	0.409637
3090.12	0.413788
3091.12	0.417908
3092.12	0.422028
3093.12	0.426208
3094.12	0.430359
3095.12	0.434479
3096.12	0.438599
3097.12	0.44281
3098.12	0.447021
3099.12	0.451294
3100.12	0.455597
3101.12	0.4599
3102.12	0.464264
3103.12	0.468658
3104.12	0.473083
3105.12	0.477509
3106.12	0.481964
3107.12	0.486481
3108.12	0.490997
3109.12	0.495483
3110.12	0.500183
3111.12	0.504761
3112.12	0.509033
3113.12	0.513611
3114.12	0.517883
3115.12	0.522461
3116.12	0.526733
3117.12	0.530701
3118.12	0.534668
3119.12	0.538635
3120.12	0.542297
3121.12	0.545654
3122.12	0.548706
3123.12	0.552063
3124.12	0.55481
3125.12	0.557556
3126.12	0.560303
3127.12	0.562439
3128.12	0.56488
3129.12	0.567017
3130.12	0.568848
3131.12	0.570679
3132.12	0.57251
3133.12	0.574036
3134.12	0.575256
3135.12	0.576782
3136.12	0.578003
3137.12	0.579224
3138.12	0.580444
3139.12	0.581665
3140.12	0.582581
3141.12	0.583496
3142.12	0.584412
3143.12	0.585327
3144.12	0.586243
3145.12	0.586853
3146.12	0.587769
3147.12	0.588379
3148.12	0.588989
3149.12	0.5896
3150.12	0.59021
3151.12	0.59082
3152.12	0.591125
3153.12	0.591736
3154.12	0.592346
3155.12	0.592957
3156.12	0.593262
3157.12	0.593567
3158.12	0.593872
3159.12	0.594482
3160.12	0.594788
3161.12	0.595093
3162.12	0.595398
3163.12	0.595703
3164.12	0.596008
3165.12	0.596313
3166.12	0.596619
3167.12	0.597229
3168.12	0.597229
3169.12	0.597534
3170.12	0.597839
3171.12	0.598145
3172.12	0.598145
3173.12	0.59845
3174.12	0.598755
3175.12	0.598755
3176.12	0.59906
3177.12	0.599365
3178.12	0.599365
3179.12	0.59967
3180.12	0.599976
3181.12	0.599976
3182.12	0.600281
3183.12	0.600586
3184.12	0.600586
3185.12	0.600891
3186.12	0.600891
3187.12	0.601196
3188.12	0.601196
3189.12	0.601501
3190.12	0.601501
3191.12	0.601807
3192.12	0.602417
3193.12	0.602417
3194.12	0.602722
3195.12	0.603027
3196.12	0.603333