File: Edgar/20240607/20240607/electrodeposition_pulsed_potential_20240607_F/pulses_2000_to_3000.txt
Time (s)	WE(1).Potential (V)	WE(1).Current (A)
1599.07	-0.697998	-0.0206482
1601.41	0.000708008	0.00688293
1603.73	-0.00072937	0.00382355
1606.07	-0.697571	-0.01828
1608.41	-0.000286865	0.00703552
1610.73	-0.000463867	0.00389343
1613.07	-0.698914	-0.0182281
1615.41	0.00101318	0.0070517
1617.73	0.000674438	0.00391144
1620.07	-0.697876	-0.0182343
1622.41	0.000592041	0.00706177
1624.73	0.00113831	0.00392944
1627.07	-0.698944	-0.0182098
1629.41	-9.76562e-05	0.00707123
1631.73	0.000628662	0.00394348
1634.07	-0.698792	-0.0181915
1636.41	0.000811768	0.00706787
1638.73	0.000970459	0.00395142
1641.07	-0.697906	-0.0181946
1643.41	-0.000146484	0.00707703
1645.73	0.000244141	0.00396881
1648.07	-0.697998	-0.0181915
1650.41	-0.000408936	0.00707916
1652.73	-0.000671387	0.00397675
1655.07	-0.697571	-0.0182037
1657.41	-0.00043335	0.00707825
1659.73	-0.000650024	0.00398163
1662.07	-0.697998	-0.0181854
1664.41	0.00017395	0.00707642
1666.73	-0.00015564	0.00398468
1669.07	-0.69751	-0.0181793
1671.41	-0.000720215	0.00707214
1673.73	0.000112915	0.00399078
1676.07	-0.698029	-0.0181854
1678.41	0.000119019	0.0070636
1680.73	-0.000616455	0.00399323
1683.07	-0.698059	-0.0181763
1685.41	0.000512695	0.00705048
1687.73	0.000540161	0.00399078
1690.07	-0.698364	-0.0181549
1692.41	0.000537109	0.0070459
1694.73	-0.00071106	0.00400177
1697.07	-0.699188	-0.0181519
1699.41	-0.000561523	0.00704895
1701.73	0.000576782	0.00399933
1704.07	-0.697632	-0.0181549
1706.41	-0.000485229	0.00704376
1708.73	0.000201416	0.00400543
1711.07	-0.697906	-0.0181519
1713.41	-0.000875854	0.00704102
1715.73	-0.000720215	0.00401031
1718.07	-0.698883	-0.0181335
1720.41	-0.000698853	0.00703674
1722.73	-0.000698853	0.00401611
1725.07	-0.697754	-0.0181427
1727.41	0.000927734	0.00702148
1729.73	0.000701904	0.00400726
1732.07	-0.698059	-0.0181396
1734.41	-0.000411987	0.00702057
1736.73	0.00050354	0.00401978
1739.07	-0.698273	-0.0181183
1741.41	0.000772095	0.00701019
1743.73	0.000506592	0.0040152
1746.07	-0.697784	-0.0181335
1748.41	0.000784302	0.00700745
1750.73	-0.000335693	0.00402466
1753.07	-0.699158	-0.0181091
1755.41	0.00104675	0.00700317
1757.73	-0.000561523	0.00403137
1760.07	-0.69751	-0.0181183
1762.41	0.000656128	0.00699554
1764.73	0.00105896	0.00402618
1767.07	-0.697876	-0.0181152
1769.41	-0.000161743	0.00699615
1771.73	-0.000653076	0.00404083
1774.07	-0.698395	-0.0180939
1776.41	0.000656128	0.00698883
1778.73	0.000299072	0.00403351
1781.07	-0.698547	-0.0180969
1783.41	0.000933838	0.00698059
1785.73	9.15527e-06	0.0040448
1788.07	-0.698273	-0.0180939
1790.41	-0.00038147	0.00698669
1792.73	0.000891113	0.00403778
1795.07	-0.698456	-0.0180939
1797.41	0.000292969	0.00697357
1799.73	-2.13623e-05	0.00404907
1802.07	-0.69931	-0.0180756
1804.41	0.00102539	0.00696869
1806.73	0.000991821	0.00404785
1809.07	-0.698456	-0.0180817
1811.41	0.000958252	0.00696014
1813.73	-0.000546265	0.00405609
1816.07	-0.698029	-0.0180786
1818.41	-0.000567627	0.00696716
1820.73	-0.000735474	0.0040625
1823.07	-0.698669	-0.0180511
1825.41	0.000186157	0.00696106
1827.73	0.000927734	0.00405609
1830.07	-0.699432	-0.0180603
1832.41	0.0006073	0.00694916
1834.73	-0.000271606	0.00406006
1837.07	-0.699005	-0.0180389
1839.41	-1.2207e-05	0.00695221
1841.73	0.000668335	0.00406403
1844.07	-0.697723	-0.0180725
1846.41	0.000854492	0.0069278
1848.73	-0.00067749	0.00406281
1851.07	-0.698669	-0.0180756
1853.41	-0.000463867	0.00692688
1855.73	-0.0006073	0.00406616
1858.07	-0.697784	-0.0180725
1860.41	0.000811768	0.00692047
1862.73	4.57764e-05	0.00406616
1865.07	-0.697784	-0.0180634
1867.41	0.000872803	0.00691772
1869.73	0.000970459	0.00406342
1872.07	-0.699188	-0.0180481
1874.41	0.000183105	0.00692474
1876.73	-0.000180054	0.00407654
1879.07	-0.69751	-0.0180481
1881.41	-0.000152588	0.00691803
1883.73	-0.000537109	0.00408234
1886.07	-0.698517	-0.0180511
1888.41	-0.000613403	0.00691528
1890.73	-0.000570679	0.00408112
1893.07	-0.697784	-0.0180389
1895.41	-0.000216675	0.0069043
1897.73	0.000186157	0.0040802
1900.07	-0.697845	-0.0180298
1902.41	-0.000259399	0.006922
1904.73	0.000881958	0.00407898
1907.07	-0.699249	-0.0180481
1909.41	0.000891113	0.00690186
1911.73	-0.000613403	0.00409149
1914.07	-0.697723	-0.0180542
1916.41	-0.000549316	0.00691132
1918.73	0.000793457	0.00408905
1921.07	-0.699188	-0.0180328
1923.41	0.000805664	0.00689453
1925.73	0.00090332	0.00409119
1928.07	-0.698151	-0.0180328
1930.41	-0.000323486	0.00690216
1932.73	0.000787354	0.00410065
1935.07	-0.698914	-0.0180267
1937.41	0.000714111	0.00688629
1939.73	3.05176e-06	0.00410034
1942.07	-0.699036	-0.0180237
1944.41	-0.000119019	0.00688782
1946.73	0.000863647	0.00409882
1949.07	-0.698822	-0.0180206
1951.41	0.00105896	0.00688293
1953.73	0.00093689	0.004104
1956.07	-0.69809	-0.0180237
1958.41	0.000616455	0.0068811
1960.73	-0.000708008	0.00411407
1963.07	-0.69931	-0.0180237
1965.41	-0.0003479	0.00688782
1967.73	0.000994873	0.00410919
1970.07	-0.699188	-0.0180389
1972.41	-0.0006073	0.00688721
1974.73	-0.00015564	0.00411682
1977.07	-0.69754	-0.0180481
1979.41	0.00102234	0.00687622
1981.73	-0.000674438	0.00412262
1984.07	-0.697601	-0.0180389
1986.41	-0.000512695	0.00688232
1988.73	-0.000759888	0.00412506
1991.07	-0.697479	-0.0180664
1993.41	0.000924683	0.00686432
1995.73	0.000405884	0.00411835
1998.07	-0.698059	-0.0180573
2000.41	0.000363159	0.00687042
2002.73	-0.000109863	0.00411835
2005.07	-0.698944	-0.0180603
2007.41	0.000906372	0.0068631
2009.73	0.000491333	0.00412048
2012.07	-0.697571	-0.0180664
2014.41	0.0006073	0.00685791
2016.73	0.000933838	0.00412262
2019.07	-0.69809	-0.018045
2021.41	-0.000787354	0.00686462
2023.73	-0.000219727	0.00412567
2026.07	-0.698303	-0.018042
2028.41	0.000723267	0.00685699
2030.73	0.00093689	0.00412689
2033.07	-0.698822	-0.018045
2035.41	-0.000378418	0.0068573
2037.73	-0.000357056	0.00413666
2040.07	-0.69928	-0.0180328
2042.41	-0.000216675	0.00684845
2044.73	0.000985718	0.00413422
2047.07	-0.697968	-0.0180237
2049.41	0.00078125	0.00685455
2051.73	-0.000158691	0.00414612
2054.07	-0.698059	-0.0180847
2056.41	-0.000262451	0.00686584
2058.73	-0.00027771	0.00415009
2061.07	-0.697632	-0.0180695
2063.41	-0.000567627	0.00686218
2065.73	0.000997925	0.00414093
2068.07	-0.6987	-0.0180664
2070.41	-0.000344849	0.00686096
2072.73	0.000695801	0.00415039
2075.07	-0.699127	-0.0180542
2077.41	-0.000482178	0.00686035
2079.73	-0.000717163	0.00415894
2082.07	-0.698303	-0.0180481
2084.41	0.000521851	0.00685486
2086.73	-0.000570679	0.00416199
2089.07	-0.699097	-0.018042
2091.41	0.00043335	0.00684357
2093.73	0.000808716	0.00415619
2096.07	-0.697968	-0.018042
2098.41	0.00078125	0.00684052
2100.73	0.000741577	0.00415955
2103.07	-0.699036	-0.0180328
2105.41	0.000610352	0.00683929
2107.73	-0.000588989	0.00417053
2110.07	-0.698029	-0.0180328
2112.41	0.00020752	0.00683777
2114.73	0.000588989	0.00416779
2117.07	-0.698883	-0.0180298
2119.41	-0.000656128	0.00683441
2121.73	7.01904e-05	0.0041745
2124.07	-0.69751	-0.0180237
2126.41	0.000775146	0.00682861
2128.73	0.000997925	0.00417511
2131.07	-0.699371	-0.0180176
2133.41	0.000942993	0.00682281
2135.73	0.000411987	0.00418152
2138.07	-0.699188	-0.0180115
2140.41	-0.000735474	0.00682983
2142.73	0.000387573	0.00417847
2145.07	-0.699127	-0.0180023
2147.41	-0.000680542	0.00682678
2149.73	0.000881958	0.00418091
2152.07	-0.697693	-0.0180054
2154.41	0.000189209	0.00681396
2156.73	-0.000463867	0.00419495
2159.07	-0.698364	-0.0179901
2161.41	0.000744629	0.0068158
2163.73	0.00102539	0.00418549
2166.07	-0.698792	-0.0179901
2168.41	0.00038147	0.00681488
2170.73	-0.000170898	0.00419037
2173.07	-0.697601	-0.0179932
2175.41	0.000906372	0.00680359
2177.73	0.000906372	0.0041922
2180.07	-0.697784	-0.0179901
2182.41	0.000231934	0.00680908
2184.73	0.000933838	0.00419464
2187.07	-0.699097	-0.0179718
2189.41	-4.27246e-05	0.00680237
2191.73	1.83105e-05	0.0042041
2194.07	-0.698395	-0.01796875
2196.41	0.000778198	0.00679504
2198.73	-6.71387e-05	0.00420776
2201.07	-0.698547	-0.0179779
2203.41	0.000436401	0.006796875
2205.73	0.00108948	0.00420349
2208.07	-0.698608	-0.0179749
2210.41	0.000375366	0.00679291
2212.73	-0.000338745	0.00421631
2215.07	-0.697601	-0.01796875
2217.41	0.000726318	0.00678955
2219.73	0.000842285	0.00420868
2222.07	-0.697845	-0.0179657
2224.41	-7.32422e-05	0.0067923
2226.73	0.000717163	0.00421204
2229.07	-0.697662	-0.0179596
2231.41	-5.49316e-05	0.00678223
2233.73	0.000143433	0.00421478
2236.07	-0.697815	-0.0179565
2238.41	-5.49316e-05	0.00678436
2240.73	0.000192261	0.00421906
2243.07	-0.698334	-0.0179352
2245.41	-0.000552368	0.00678162
2247.73	-0.000619507	0.00423096
2250.07	-0.697571	-0.0179382
2252.41	-0.000457764	0.00678345
2254.73	-0.000518799	0.00423279
2257.07	-0.698456	-0.0179779
2259.41	0.000109863	0.00677795
2261.73	0.000125122	0.00422028
2264.07	-0.698456	-0.0179718
2266.41	5.79834e-05	0.00677551
2268.73	0.000106812	0.00422241
2271.07	-0.698395	-0.01796875
2273.41	2.74658e-05	0.00677216
2275.73	0.000128174	0.00422546
2278.07	-0.698486	-0.0179596
2280.41	0.000210571	0.00676758
2282.73	-0.000479126	0.00422791
2285.07	-0.698303	-0.0179474
2287.41	0.000854492	0.00676605
2289.73	0.00065918	0.00422729
2292.07	-0.697693	-0.0179657
2294.41	-0.00045166	0.00677002
2296.73	-0.000665283	0.00424133
2299.03	-0.000683594	0.00276154