File: Edgar/20240607/20240607/electrodeposition_pulsed_potential_20240607_F/pulses_0_to_1000.txt
Time (s)	WE(1).Potential (V)	WE(1).Current (A)
181.614	-0.698364	-0.00382904
183.954	-0.000671387	0.000159119
186.274	0.000506592	1.25122e-06
188.614	-0.698364	-0.00805359
190.954	-3.05176e-06	0.000460571
193.274	0.000616455	-0.000150757
195.614	-0.699463	-0.0106842
197.954	-8.23975e-05	0.00212372
200.274	0.000973511	-0.000199158
202.614	-0.697968	-0.0122375
204.954	6.10352e-05	0.00390015
207.274	-0.000271606	-0.000204041
209.614	-0.698517	-0.0132599
211.954	0.00012207	0.00504333
214.274	0.000949097	-0.00020639
216.614	-0.699341	-0.0139496
218.954	-0.000695801	0.00579163
221.274	0.000982666	-0.000189758
223.614	-0.699463	-0.0144592
225.954	-5.49316e-05	0.00631012
228.274	-0.000326538	-0.000161041
230.614	-0.698761	-0.014859
232.954	-0.000357056	0.00671326
235.274	-0.000588989	-0.00013327
237.614	-0.697998	-0.01521
239.954	0.000827026	0.00701233
242.274	0.000708008	-0.000114868
244.614	-0.697937	-0.0154999
246.954	-0.000714111	0.00727173
249.274	0.000775146	-8.68225e-05
251.614	-0.697968	-0.015744
253.954	-0.000222778	0.00746857
256.274	-0.000588989	-4.22058e-05
258.614	-0.698425	-0.015976
260.954	0.000692749	0.00762634
263.274	0.000732422	-1.42517e-05
265.614	-0.699402	-0.0161682
267.954	-0.00017395	0.00775452
270.274	4.88281e-05	3.1311e-05
272.614	-0.699066	-0.0163483
274.954	-0.000753784	0.00788269
277.274	0.000143433	7.6355e-05
279.614	-0.698029	-0.0165344
281.954	-0.000543213	0.0079834
284.274	-0.000643921	0.000130219
286.614	-0.698914	-0.016684
288.954	-0.000814819	0.00808105
291.274	0.000314331	0.000172668
293.614	-0.697662	-0.0168274
295.954	-0.000918579	0.0081665
298.274	0.000610352	0.000222992
300.614	-0.699188	-0.0169464
302.954	-0.000619507	0.00823364
305.274	0.000842285	0.000272095
307.614	-0.698883	-0.0170837
309.954	0.000827026	0.00828857
312.274	-0.000430298	0.000340668
314.614	-0.69928	-0.0171844
316.954	-0.000265503	0.0083374
319.274	-0.000485229	0.000395264
321.614	-0.698975	-0.0172882
323.954	0.000476074	0.00839539
326.274	0.00112305	0.000444672
328.614	-0.699402	-0.017395
330.954	0.000106812	0.00843811
333.274	-0.000476074	0.000509338
335.614	-0.698914	-0.0174805
337.954	0.000119019	0.00846863
340.274	0.0009765625	0.000562744
342.614	-0.698944	-0.0175842
344.954	4.57764e-05	0.00848694
347.274	0.000738525	0.000622864
349.614	-0.698395	-0.0176605
351.954	0.0003479	0.00850525
354.274	-0.000488281	0.000690918
356.614	-0.697601	-0.0177277
358.954	0.000567627	0.00852661
361.274	0.00107727	0.000740967
363.614	-0.699127	-0.0177856
365.954	-0.000906372	0.00855103
368.274	-7.62939e-05	0.000805664
370.614	-0.699249	-0.0178497
372.954	0.000665283	0.00856018
375.274	0.000982666	0.000858459
377.614	-0.697937	-0.0179199
379.954	-0.000415039	0.00858154
382.274	-0.00038147	0.000922546
384.614	-0.697662	-0.017981
386.954	-0.000875854	0.00858765
389.274	0.000427246	0.0009765625
391.614	-0.697632	-0.018042
393.954	-0.000872803	0.00858765
396.274	0.00104065	0.001026
398.614	-0.699066	-0.0180725
400.954	0.000698853	0.0085968
403.274	-0.000561523	0.00109375
405.614	-0.697388	-0.0181396
407.954	-0.000726318	0.00859375
410.274	0.000598145	0.00113953
412.614	-0.697601	-0.0181763
414.954	0.00078125	0.00859375
417.274	-0.00062561	0.00119537
419.614	-0.698883	-0.0182312
421.954	0.00045166	0.00859375
424.274	0.00115662	0.00124176
426.614	-0.697632	-0.01828
428.954	-0.000784302	0.00860596
431.274	0.000933838	0.00130005
433.614	-0.698822	-0.0182983
435.954	0.000717163	0.0085907
438.274	-0.000534058	0.00135193
440.614	-0.697601	-0.0183533
442.954	-0.000152588	0.00858154
445.274	9.15527e-06	0.00140259
447.614	-0.699249	-0.0183746
449.954	-0.000787354	0.00858765
452.274	0.000396729	0.00144379
454.614	-0.69873	-0.018399
456.954	-1.2207e-05	0.00858154
459.274	0.00055542	0.00149139
461.614	-0.69928	-0.0184326
463.954	-0.00055542	0.00857239
466.274	0.000253296	0.00154236
468.614	-0.697601	-0.0184631
470.954	-0.000302124	0.00855408
473.274	0.000805664	0.00158356
475.614	-0.698059	-0.0184814
477.954	-0.000949097	0.00855103
480.274	-0.000128174	0.001633
482.614	-0.699188	-0.0185059
484.954	-0.000656128	0.00854797
487.274	0.000939941	0.00167328
489.614	-0.69754	-0.0185425
491.954	-0.000888062	0.00853271
494.274	-0.000299072	0.0017218
496.614	-0.697754	-0.0185486
498.954	-0.000650024	0.00853271
501.274	0.000952148	0.00176056
503.614	-0.699371	-0.0185791
505.954	0.000491333	0.00850525
508.274	0.00093689	0.00180389
510.614	-0.697662	-0.0186096
512.954	-0.000634766	0.0085022
515.274	0.000146484	0.00184753
517.614	-0.69809	-0.0186279
519.954	-0.000228882	0.0085022
522.274	-0.000549316	0.00188751
524.614	-0.698914	-0.018634
526.954	0.000140381	0.00846863
529.274	-0.000421143	0.00192352
531.614	-0.699158	-0.0186493
533.954	0.000820923	0.00845642
536.274	-0.000613403	0.00196472
538.614	-0.697571	-0.0186676
540.954	-0.000640869	0.00846252
543.274	-0.000604248	0.00200287
545.614	-0.697906	-0.0186859
547.954	-0.00062561	0.00843201
550.274	-0.000546265	0.00204102
552.614	-0.699097	-0.0186829
554.954	-0.000149536	0.0084137
557.274	-0.000531006	0.00207367
559.614	-0.697662	-0.0187073
561.954	0.000384521	0.00840454
564.274	-0.000390625	0.00211243
566.614	-0.69812	-0.0187195
568.954	-0.000497437	0.00839539
571.274	0.00106812	0.00213135
573.614	-0.698334	-0.0187195
575.954	-0.000875854	0.00838928
578.274	0.000973511	0.00217163
580.614	-0.698395	-0.0187317
582.954	0.000561523	0.00836792
585.274	0.000994873	0.00219971
587.614	-0.699066	-0.0187317
589.954	-0.000375366	0.00835266
592.274	0.000695801	0.00223267
594.614	-0.697571	-0.0187531
596.954	0.000671387	0.00835266
599.274	-0.000668335	0.00227417
601.614	-0.699188	-0.0187469
603.954	6.40869e-05	0.0083252
606.274	-0.00062561	0.00230652
608.614	-0.698792	-0.0187469
610.954	0.000747681	0.0083313
613.274	0.000906372	0.00232513
615.614	-0.699341	-0.0187592
617.954	-1.83105e-05	0.00830078
620.274	0.000775146	0.00236176
622.614	-0.699005	-0.0187592
624.954	-0.000167847	0.00828247
627.274	0.00113525	0.00238556
629.614	-0.698853	-0.0187683
631.954	0.000628662	0.00827026
634.274	-0.000454712	0.00242432
636.614	-0.699249	-0.0187683
638.954	-9.46045e-05	0.00827026
641.274	0.00102844	0.00244141
643.614	-0.699127	-0.0187653
645.954	0.000494385	0.008255
648.275	-0.000588989	0.00247681
650.615	-0.699066	-0.0187744
652.955	0.000213623	0.00823669
655.275	0.000967407	0.00249359
657.615	-0.697571	-0.0187866
659.955	-0.000540161	0.00821838
662.275	-0.000552368	0.00253021
664.615	-0.69751	-0.0187805
666.955	-0.000549316	0.00821533
669.275	0.00083313	0.00255188
671.615	-0.697479	-0.0187958
673.955	-0.000650024	0.00821533
676.275	-0.00043335	0.00257568
678.615	-0.698639	-0.0187836
680.955	0.000585937	0.00818481
683.275	0.000637817	0.00260193
685.615	-0.697449	-0.0188019
687.955	-0.000192261	0.00817566
690.275	0.000619507	0.00262238
692.615	-0.697479	-0.0187988
694.955	0.000662231	0.00816956
697.275	0.000668335	0.00265015
699.615	-0.697449	-0.0188019
701.955	0.000680542	0.00814514
704.275	0.000506592	0.00267487
706.615	-0.698364	-0.0187927
708.955	-0.000714111	0.00815125
711.275	-0.000521851	0.00270111
713.615	-0.69928	-0.0187866
715.955	0.000714111	0.00811157
718.275	-0.000582886	0.00272675
720.615	-0.697906	-0.0187744
722.955	-0.000610352	0.00809937
725.275	0.000274658	0.00274475
727.615	-0.698761	-0.0187592
729.955	-2.13623e-05	0.008078
732.275	-0.000405884	0.00276794
734.615	-0.697479	-0.0187622
736.955	0.000201416	0.00805969
739.275	-0.000656128	0.00278595
741.615	-0.697479	-0.0187622
743.955	0.000769043	0.00805054
746.275	-0.000546265	0.00280731
748.615	-0.699188	-0.0187439
750.955	0.000698853	0.00803833
753.275	0.000714111	0.0028125
755.615	-0.697784	-0.0187317
757.955	0.000823975	0.00801086
760.275	-0.000585937	0.00284332
762.615	-0.69873	-0.0187195
764.955	-0.000106812	0.00799561
767.275	0.000189209	0.00286102
769.615	-0.699127	-0.0187195
771.955	-0.000439453	0.0079895
774.275	0.00088501	0.00287323
776.615	-0.69754	-0.0187347
778.955	0.000622559	0.00797119
781.275	-0.000704956	0.00290222
783.615	-0.699249	-0.0187164
785.955	-0.000888062	0.00797424
788.275	0.000656128	0.00290985
790.615	-0.69751	-0.0187195
792.955	-0.000253296	0.00796509
795.275	-0.000604248	0.00293823
797.615	-0.697479	-0.0187195
799.955	0.000402832	0.00795593
802.275	0.000750732	0.00294769
804.615	-0.698151	-0.0187225
806.955	-0.000698853	0.00794373
809.275	-0.000787354	0.00297394
811.615	-0.69931	-0.0187073
813.955	-0.000723267	0.00792847
816.275	0.000656128	0.00298431
818.615	-0.698181	-0.0187103
820.955	0.000802612	0.0079071
823.275	0.000970459	0.00299866
825.615	-0.698364	-0.018692
827.955	0.00010376	0.00788574
830.275	-7.01904e-05	0.00302155
832.615	-0.697571	-0.0186951
834.955	-0.000869751	0.00788269
837.275	0.000912476	0.00303192
839.615	-0.697357	-0.018692
841.955	0.000802612	0.00787354
844.275	0.000982666	0.00304535
846.615	-0.698456	-0.0186768
848.955	-0.000125122	0.00787048
851.275	0.000952148	0.00305817
853.615	-0.69751	-0.018689
855.955	1.2207e-05	0.00785828
858.275	0.000921631	0.00307526
860.615	-0.697723	-0.0186768
862.955	-0.00045166	0.00783386
865.275	0.0010376	0.00309143
867.615	-0.699066	-0.0186646
869.955	-0.00088501	0.00782471
872.275	-7.32422e-05	0.00310883
874.615	-0.697815	-0.0186676
876.955	-0.000747681	0.00782471
879.275	0.000848389	0.00312103
881.575	0.000473022	0.00108337