File: Edgar/20240607/20240607/electrodeposition_pulsed_potential_20240607_F/pulses_1000_to_2000.txt
Time (s)	WE(1).Potential (V)	WE(1).Current (A)
890.134	-0.698944	-0.0200287
892.474	0.000183105	0.00758972
894.794	0.000927734	0.00299988
897.134	-0.697693	-0.0187408
899.474	-0.000445557	0.00772705
901.794	-0.00032959	0.00309235
904.134	-0.697754	-0.018689
906.474	-0.000881958	0.00774841
908.794	0.000979614	0.00312683
911.134	-0.699036	-0.0186676
913.474	0.000411987	0.00774231
915.794	0.000939941	0.00315887
918.134	-0.699036	-0.0186646
920.474	0.000463867	0.00775452
922.794	0.00101929	0.00318024
925.134	-0.69812	-0.0186707
927.474	-0.00090332	0.00775452
929.794	0.00116882	0.00320099
932.134	-0.69751	-0.0186523
934.474	-0.000714111	0.00775146
936.794	0.00100403	0.00321747
939.134	-0.698975	-0.018634
941.474	-0.000393677	0.00774231
943.794	0.000390625	0.00323395
946.134	-0.697632	-0.0186462
948.474	0.000784302	0.00772705
950.794	0.000973511	0.00324677
953.134	-0.69751	-0.018634
955.474	-0.00071106	0.00772705
957.794	0.000866699	0.00326385
960.134	-0.698944	-0.0186127
962.474	-0.000405884	0.0077179
964.794	-0.000613403	0.00328156
967.134	-0.698853	-0.0186188
969.474	-0.000201416	0.00771179
971.794	0.00100098	0.00328308
974.134	-0.698822	-0.0186096
976.474	-0.000463867	0.00769348
978.794	-0.000598145	0.00330292
981.134	-0.699005	-0.0186035
983.474	0.000500488	0.00767517
985.794	-0.000369263	0.00331696
988.134	-0.698761	-0.0186127
990.474	-0.00065918	0.00768433
992.794	0.000213623	0.00331726
995.134	-0.698242	-0.0186188
997.474	0.000216675	0.00765381
999.794	-0.000500488	0.00333496
1002.13	-0.698944	-0.0186035
1004.47	-0.000772095	0.00765076
1006.79	-0.000674438	0.00334717
1009.13	-0.699036	-0.0186432
1011.47	0.000366211	0.00765991
1013.79	0.000665283	0.00334473
1016.13	-0.697693	-0.0186554
1018.47	0.000479126	0.00766296
1020.79	0.000875854	0.00335297
1023.13	-0.69928	-0.0186523
1025.47	-0.000808716	0.00765686
1027.79	-0.000518799	0.0033783
1030.13	-0.697479	-0.0186584
1032.47	0.000198364	0.0076416
1034.79	0.000283813	0.00337769
1037.13	-0.698792	-0.0186462
1039.47	0.000759888	0.00763245
1041.79	-0.000393677	0.00339539
1044.13	-0.699005	-0.0186584
1046.47	-0.00090332	0.00762634
1048.79	-0.000772095	0.00340057
1051.13	-0.698822	-0.0186462
1053.47	0.000350952	0.00761108
1055.79	0.00093689	0.00340729
1058.13	-0.697906	-0.0186401
1060.47	-0.000872803	0.00762024
1062.79	-0.000582886	0.00342468
1065.13	-0.697662	-0.0186401
1067.47	4.27246e-05	0.00759583
1069.79	-0.000411987	0.00343292
1072.13	-0.699219	-0.0186188
1074.47	0.000698853	0.00758972
1076.79	0.000213623	0.00343811
1079.13	-0.699402	-0.0186096
1081.47	0.000405884	0.00758057
1083.79	0.00109253	0.00344574
1086.13	-0.697693	-0.0186127
1088.47	-0.000805664	0.00758362
1090.79	-0.000601196	0.00346558
1093.13	-0.697571	-0.0186035
1095.47	3.05176e-06	0.00756226
1097.79	0.00102539	0.00346588
1100.13	-0.698151	-0.0185944
1102.47	0.000964355	0.00756226
1104.79	0.000759888	0.00347626
1107.13	-0.699249	-0.0185822
1109.47	-0.000186157	0.007547
1111.79	-0.000732422	0.00349579
1114.13	-0.698303	-0.0185791
1116.47	-0.000268555	0.00754089
1118.79	-0.000726318	0.00350586
1121.13	-0.699188	-0.018573
1123.47	-0.000830078	0.00754089
1125.79	0.000143433	0.00350952
1128.13	-0.698029	-0.0185699
1130.47	-0.000360107	0.00752258
1132.79	0.000796509	0.00351746
1135.13	-0.699249	-0.0185608
1137.47	0.000439453	0.00751038
1139.79	0.000689697	0.00352936
1142.13	-0.698578	-0.0185516
1144.47	0.00071106	0.00751343
1146.79	0.000460815	0.00353607
1149.13	-0.697754	-0.0185638
1151.47	0.000283813	0.00751038
1153.79	6.10352e-06	0.00354828
1156.13	-0.699249	-0.0185364
1158.47	-0.000430298	0.00750336
1160.79	-0.00062561	0.00355682
1163.13	-0.698242	-0.0185364
1165.47	0.000787354	0.00748199
1167.79	0.000247192	0.00355621
1170.13	-0.697601	-0.0185455
1172.47	0.00022583	0.00747559
1174.79	0.000790405	0.00356323
1177.13	-0.698914	-0.0185211
1179.47	0.000524902	0.00747009
1181.79	-0.000567627	0.00358276
1184.13	-0.697998	-0.0185394
1186.47	-8.23975e-05	0.00746338
1188.79	0.000949097	0.00358582
1191.13	-0.698273	-0.018515
1193.47	0.000234985	0.00745422
1195.79	0.000177002	0.00359253
1198.13	-0.69754	-0.0185211
1200.47	0.000924683	0.0074469
1202.79	0.000735474	0.00359589
1205.13	-0.697937	-0.0185059
1207.47	0.000213623	0.00744781
1209.79	0.000778198	0.00360413
1212.13	-0.697479	-0.0185089
1214.47	0.000128174	0.00743866
1216.79	0.000723267	0.00361115
1219.13	-0.697693	-0.0185059
1221.47	-0.000595093	0.00743469
1223.79	0.000650024	0.00361938
1226.13	-0.698456	-0.0184998
1228.47	-0.000143433	0.00742828
1230.79	-0.000463867	0.00363342
1233.13	-0.697449	-0.0184845
1235.47	-0.000582886	0.0074173
1237.79	0.000488281	0.00363129
1240.13	-0.697784	-0.0184875
1242.47	0.000518799	0.00740204
1244.79	-0.000515747	0.00364838
1247.13	-0.697479	-0.0184814
1249.47	0.00083313	0.00739746
1251.79	-0.000296021	0.00365845
1254.13	-0.698029	-0.0184601
1256.47	0.000891113	0.00738953
1258.79	0.000613403	0.00366394
1261.13	-0.698151	-0.0184601
1263.47	-0.000494385	0.00738922
1265.79	-0.000415039	0.00367493
1268.13	-0.69873	-0.0184601
1270.47	3.96729e-05	0.00737549
1272.79	0.000927734	0.00367065
1275.13	-0.69928	-0.0184509
1277.47	0.000509644	0.00737274
1279.79	0.00100708	0.00367676
1282.13	-0.697998	-0.018454
1284.47	-0.000509644	0.00736908
1286.79	0.000274658	0.00368835
1289.13	-0.698029	-0.0184387
1291.47	0.000512695	0.00735687
1293.79	0.00065918	0.00369659
1296.13	-0.697601	-0.0184418
1298.47	0.000198364	0.00735992
1300.79	0.00109253	0.00370331
1303.13	-0.698151	-0.0184174
1305.47	0.000723267	0.00734161
1307.79	-0.000131226	0.0037149
1310.13	-0.698822	-0.0184174
1312.47	0.000283813	0.00733673
1314.79	0.000967407	0.00371399
1317.13	-0.697571	-0.0184204
1319.47	0.000570679	0.00733795
1321.79	-0.000341797	0.00371826
1324.13	-0.698425	-0.0184265
1326.47	0.000918579	0.0073172
1328.79	0.000906372	0.00372131
1331.13	-0.698669	-0.0184143
1333.47	0.000778198	0.00731537
1335.79	-0.000634766	0.00373474
1338.13	-0.698975	-0.0184082
1340.47	-0.000802612	0.00731354
1342.79	0.000418091	0.00373535
1345.13	-0.697754	-0.0184082
1347.47	0.00072937	0.00730499
1349.79	-0.000439453	0.00374451
1352.13	-0.698853	-0.0183899
1354.47	0.000442505	0.00729675
1356.79	0.000369263	0.00375153
1359.13	-0.698517	-0.0183899
1361.47	-0.000326538	0.00730316
1363.79	7.32422e-05	0.00376282
1366.13	-0.697693	-0.0183868
1368.47	-0.000445557	0.00729279
1370.79	0.000231934	0.00377106
1373.13	-0.697968	-0.0183899
1375.47	0.000463867	0.00728668
1377.79	-5.18799e-05	0.00377258
1380.13	-0.699005	-0.0183746
1382.47	-0.000488281	0.00728424
1384.79	-0.000485229	0.00378448
1387.13	-0.698883	-0.0183685
1389.47	0.000842285	0.00726746
1391.79	0.000686646	0.00377869
1394.13	-0.6987	-0.0183563
1396.47	-6.10352e-05	0.00726807
1398.79	0.000561523	0.0037854
1401.13	-0.697906	-0.0183746
1403.47	0.000720215	0.00725922
1405.79	-0.000460815	0.00380127
1408.13	-0.697906	-0.0183563
1410.47	0.000119019	0.0072522
1412.79	0.000671387	0.00380249
1415.13	-0.698151	-0.0183594
1417.47	-0.000631714	0.00725342
1419.79	0.000964355	0.00380829
1422.13	-0.6987	-0.0183441
1424.47	-0.000518799	0.00724609
1426.79	-0.000442505	0.00381958
1429.13	-0.69873	-0.0183258
1431.47	0.000906372	0.00723328
1433.79	-0.000576782	0.00382629
1436.13	-0.699127	-0.0183167
1438.47	0.000662231	0.00722595
1440.79	-0.000582886	0.00383667
1443.13	-0.697937	-0.0183167
1445.47	0.000350952	0.00722778
1447.79	7.62939e-05	0.00383606
1450.13	-0.697937	-0.0183411
1452.47	-0.000653076	0.00723694
1454.79	-0.00015564	0.00383881
1457.13	-0.699249	-0.0183197
1459.47	-0.000674438	0.00722626
1461.79	0.000320435	0.00383942
1464.13	-0.697449	-0.0183197
1466.47	-9.76562e-05	0.00722076
1468.79	0.000341797	0.00384918
1471.13	-0.698212	-0.0183167
1473.47	-0.000213623	0.0072168
1475.79	-0.000286865	0.00385742
1478.13	-0.697601	-0.0183167
1480.47	-0.000268555	0.00720215
1482.79	0.000241089	0.00385651
1485.13	-0.697327	-0.0183044
1487.47	-0.000268555	0.0071994
1489.79	-0.00055542	0.00387177
1492.13	-0.697632	-0.0182953
1494.47	0.000708008	0.00719177
1496.79	0.000985718	0.00386353
1499.13	-0.699066	-0.0182922
1501.47	0.000894165	0.00718231
1503.79	-0.000375366	0.00388
1506.13	-0.69812	-0.0182953
1508.47	0.000152588	0.00718445
1510.79	0.00112	0.00387482
1513.13	-0.699249	-0.018277
1515.47	-0.000756836	0.00718231
1517.79	0.000628662	0.00388397
1520.13	-0.699036	-0.0182678
1522.47	-0.000784302	0.00717712
1524.79	-0.000628662	0.0038913
1527.13	-0.699249	-0.0182831
1529.47	0.000912476	0.00715637
1531.79	0.00109558	0.00388611
1534.13	-0.699219	-0.0182678
1536.47	0.000946045	0.00715088
1538.79	0.000463867	0.00388855
1541.13	-0.698425	-0.0182617
1543.47	0.000701904	0.00714905
1545.79	0.000720215	0.00389435
1548.13	-0.697479	-0.0182526
1550.47	-0.000582886	0.00715088
1552.79	0.00104675	0.00389984
1555.13	-0.698975	-0.0182465
1557.47	-0.000280762	0.0071405
1559.79	-0.00045166	0.00391571
1562.13	-0.698212	-0.0182495
1564.47	0.000372314	0.00713135
1566.79	0.000924683	0.00390961
1569.13	-0.697601	-0.0182434
1571.47	0.000466919	0.00713287
1573.79	-0.000588989	0.00392578
1576.13	-0.697784	-0.0182373
1578.47	0.0003479	0.00712372
1580.79	0.000982666	0.0039209
1583.13	-0.698212	-0.0182251
1585.47	0.000784302	0.00711365
1587.79	-0.00045166	0.00393127
1590.09	-0.00057373	0.00219055