File: Edgar/20240607/20240607/electrodeposition_pulsed_potential_20240607_F/pulses_3000_to_4000.txt
Time (s)	WE(1).Potential (V)	WE(1).Current (A)
2307.83	-0.697449	-0.0209442
2310.17	0.000735474	0.00650909
2312.49	-0.000585937	0.00412964
2314.83	-0.699097	-0.0179962
2317.17	0.000601196	0.00668304
2319.49	0.000292969	0.00420227
2321.83	-0.69751	-0.01796875
2324.17	0.00102234	0.00671387
2326.49	0.000524902	0.00421936
2328.83	-0.697754	-0.0179565
2331.17	0.000769043	0.00672211
2333.49	0.000610352	0.00423492
2335.83	-0.698639	-0.0179413
2338.17	-0.000253296	0.00672852
2340.49	-9.15527e-05	0.00424072
2342.83	-0.699219	-0.017923
2345.17	-3.96729e-05	0.00673828
2347.49	0.000439453	0.00424377
2349.83	-0.697998	-0.0179138
2352.17	-6.40869e-05	0.00673279
2354.49	-0.00062561	0.00426025
2356.83	-0.698669	-0.0179138
2359.17	0.000558472	0.00672943
2361.49	0.000161743	0.00426086
2363.83	-0.69873	-0.0179108
2366.17	0.000445557	0.0067337
2368.49	-0.000531006	0.00426849
2370.83	-0.699066	-0.0178894
2373.17	0.000842285	0.00672638
2375.49	-0.000634766	0.00427155
2377.83	-0.699219	-0.0178894
2380.17	-0.000128174	0.0067337
2382.49	0.00065918	0.00426819
2384.83	-0.698242	-0.0179016
2387.17	-9.15527e-05	0.00672638
2389.49	0.000204468	0.0042688
2391.83	-0.697601	-0.0178986
2394.17	-0.00062561	0.00673096
2396.49	-0.000427246	0.00427521
2398.83	-0.697632	-0.0178925
2401.17	0.000149536	0.00672546
2403.49	0.000131226	0.00427429
2405.83	-0.698364	-0.0178864
2408.17	6.71387e-05	0.00672546
2410.49	0.000137329	0.00427643
2412.83	-0.698303	-0.0178833
2415.17	-0.000457764	0.00671753
2417.49	0.000314331	0.00428528
2419.83	-0.697571	-0.0178894
2422.17	-0.000335693	0.00671631
2424.49	0.000942993	0.00427795
2426.83	-0.697571	-0.0178772
2429.17	-0.000344849	0.00671631
2431.49	-0.000646973	0.00428772
2433.83	-0.697693	-0.0178741
2436.17	0.000817871	0.00670227
2438.49	-0.000518799	0.00428589
2440.83	-0.698669	-0.0178619
2443.17	0.000405884	0.00670715
2445.49	0.000204468	0.00428925
2447.83	-0.69809	-0.0178589
2450.17	0.000796509	0.0067041
2452.49	5.79834e-05	0.00429169
2454.83	-0.697662	-0.017868
2457.17	0.00100098	0.00669647
2459.49	0.000143433	0.0042926
2461.83	-0.698273	-0.0178558
2464.17	0.000323486	0.00670258
2466.49	3.05176e-06	0.00429199
2468.83	-0.698151	-0.0178619
2471.17	0.00106506	0.00669128
2473.49	0.000894165	0.0042868
2475.83	-0.697845	-0.0178467
2478.17	0.00105591	0.00668671
2480.49	-0.000588989	0.00430145
2482.83	-0.697998	-0.0178589
2485.17	-9.76562e-05	0.00669464
2487.49	0.000372314	0.0042981
2489.83	-0.698395	-0.0178375
2492.17	0.000756836	0.0066806
2494.49	-0.000308228	0.00430359
2496.83	-0.699341	-0.0178436
2499.17	-0.000836182	0.0066864
2501.49	-0.000430298	0.00430511
2503.83	-0.698975	-0.0178253
2506.17	-0.000875854	0.00668579
2508.49	2.13623e-05	0.00430115
2510.83	-0.699097	-0.0178345
2513.17	-0.000463867	0.00668488
2515.49	0.000839233	0.00430054
2517.83	-0.699097	-0.0178192
2520.17	0.00110474	0.00667236
2522.49	-0.000564575	0.00431061
2524.83	-0.697968	-0.0178375
2527.17	-0.000753784	0.00667847
2529.49	0.000234985	0.00430298
2531.83	-0.697723	-0.0178345
2534.17	-0.000576782	0.00666382
2536.49	-0.0006073	0.00431
2538.83	-0.697937	-0.0178223
2541.17	-0.000280762	0.00667633
2543.49	0.000985718	0.00430237
2545.83	-0.697845	-0.0178192
2548.17	-0.000714111	0.00666626
2550.49	-0.000460815	0.00431091
2552.83	-0.69754	-0.0178162
2555.17	0.000704956	0.00665375
2557.49	-0.000619507	0.00431763
2559.83	-0.697601	-0.0178162
2562.17	-0.000769043	0.00666412
2564.49	-0.000683594	0.00431854
2566.83	-0.699371	-0.0178131
2569.17	0.000149536	0.00665131
2571.49	0	0.00431976
2573.83	-0.698669	-0.0177917
2576.17	-0.000744629	0.0066571
2578.49	0.000436401	0.00431732
2580.83	-0.698975	-0.0177887
2583.17	-0.000738525	0.00665405
2585.49	-0.000350952	0.00432159
2587.83	-0.699036	-0.0177917
2590.17	-0.000738525	0.00664917
2592.49	0.000952148	0.00431458
2594.83	-0.697571	-0.0177948
2597.17	0.000527954	0.00664429
2599.49	0.000888062	0.00431885
2601.83	-0.698639	-0.0177826
2604.17	0.000152588	0.00663391
2606.49	9.15527e-06	0.00432159
2608.83	-0.698792	-0.0177734
2611.17	0.000543213	0.00663879
2613.49	-0.000317383	0.00432648
2615.83	-0.699249	-0.0177704
2618.17	-0.000811768	0.00663269
2620.49	-0.000186157	0.00432739
2622.83	-0.698059	-0.0177795
2625.17	-0.000369263	0.00662994
2627.49	-0.000463867	0.00433289
2629.83	-0.698334	-0.0177795
2632.17	0.00017395	0.00662872
2634.49	0.000979614	0.00432159
2636.83	-0.698273	-0.0177795
2639.17	0.00038147	0.00662323
2641.49	0.000720215	0.00432709
2643.83	-0.699249	-0.0177612
2646.17	0.000872803	0.00661407
2648.49	-0.000106812	0.00432556
2650.83	-0.699005	-0.0177521
2653.17	-0.000357056	0.00661713
2655.49	0.000302124	0.00433472
2657.83	-0.69751	-0.0177551
2660.17	0.000985718	0.00660675
2662.49	-0.000704956	0.00433746
2664.83	-0.698425	-0.0177582
2667.17	3.35693e-05	0.00661194
2669.49	9.76562e-05	0.00433533
2671.83	-0.698425	-0.0177521
2674.17	5.18799e-05	0.00660919
2676.49	-0.000680542	0.00434174
2678.83	-0.697571	-0.0177551
2681.17	-0.000790405	0.00661072
2683.49	0.00093689	0.00433624
2685.83	-0.697845	-0.017746
2688.17	-0.000302124	0.00660675
2690.49	0.000842285	0.00433563
2692.83	-0.697601	-0.0177429
2695.17	0.000939941	0.00659271
2697.49	0.00098877	0.0043396
2699.83	-0.698303	-0.017746
2702.17	-0.000167847	0.00659454
2704.49	0.00065918	0.00434052
2706.83	-0.69928	-0.0177368
2709.17	0.000921631	0.00658875
2711.49	-0.000421143	0.00434479
2713.83	-0.699158	-0.0177185
2716.17	0.000521851	0.00659058
2718.49	0.0009552	0.00434082
2720.83	-0.699097	-0.0177155
2723.17	-0.000445557	0.00659393
2725.49	-0.000552368	0.00435303
2727.83	-0.699127	-0.0177216
2730.17	0.000610352	0.00658051
2732.49	-0.000656128	0.00435394
2734.83	-0.698761	-0.0177155
2737.17	0.000476074	0.00657837
2739.49	0.00072937	0.00434784
2741.83	-0.698914	-0.0177155
2744.17	0.000491333	0.00657593
2746.49	3.05176e-05	0.00435028
2748.83	-0.697449	-0.0177124
2751.17	0.000512695	0.00657379
2753.49	-7.32422e-05	0.00434906
2755.83	-0.699249	-0.0177002
2758.17	-0.000152588	0.00657532
2760.49	-0.000686646	0.00435974
2762.83	-0.69931	-0.0176941
2765.17	0.00103149	0.00657104
2767.49	-0.000518799	0.00436157
2769.83	-0.698029	-0.017691
2772.17	0.000222778	0.00656586
2774.49	-0.000814819	0.00436218
2776.83	-0.699188	-0.0176941
2779.17	-0.000241089	0.00657104
2781.49	0.000494385	0.00435547
2783.83	-0.699188	-0.0176971
2786.17	0.000601196	0.00656464
2788.49	0.000830078	0.00435852
2790.83	-0.69873	-0.0176758
2793.17	0.000912476	0.00656006
2795.49	6.10352e-05	0.00434692
2797.83	-0.697693	-0.0177002
2800.17	0.00126343	0.00659393
2802.49	5.79834e-05	0.00436707
2804.83	-0.698517	-0.0177032
2807.17	-0.000622559	0.00657288
2809.49	-0.000482178	0.00437469
2811.83	-0.697632	-0.0177063
2814.17	0.000848389	0.00655884
2816.49	-0.000613403	0.00437714
2818.83	-0.698944	-0.017688
2821.17	0.000949097	0.00655579
2823.49	0.00102234	0.00436646
2825.83	-0.699219	-0.0176849
2828.17	-1.83105e-05	0.00655884
2830.49	-0.000320435	0.00437592
2832.83	-0.699005	-0.0176788
2835.17	0.000570679	0.00655945
2837.49	0.00109863	0.00437347
2839.83	-0.698303	-0.017688
2842.17	0.000881958	0.00654846
2844.49	0.00085144	0.00437469
2846.83	-0.697815	-0.017688
2849.17	0.000167847	0.00655914
2851.49	-0.000668335	0.00438232
2853.83	-0.697449	-0.017691
2856.17	5.18799e-05	0.00655151
2858.49	-0.000466919	0.00438538
2860.83	-0.697723	-0.0177032
2863.17	-0.00072937	0.00655823
2865.49	-0.000524902	0.0043866
2867.83	-0.698975	-0.017688
2870.17	-0.000521851	0.00655823
2872.49	-0.000482178	0.00438812
2874.83	-0.699036	-0.017688
2877.17	0.000692749	0.00654205
2879.49	-0.000299072	0.00438538
2881.83	-0.698883	-0.0176819
2884.17	-0.000549316	0.00654358
2886.49	0.000375366	0.00438568
2888.83	-0.697845	-0.0177002
2891.17	-0.000741577	0.00654938
2893.49	0.000189209	0.00439392
2895.83	-0.69931	-0.0176849
2898.17	-0.000286865	0.00654541
2900.49	-0.000695801	0.00439178
2902.83	-0.699036	-0.0176819
2905.17	0.000918579	0.00653412
2907.49	0.000808716	0.00439117
2909.83	-0.697693	-0.017688
2912.17	-6.40869e-05	0.00654053
2914.49	0.00098877	0.00438538
2916.83	-0.698914	-0.0176636
2919.17	0.000848389	0.00652618
2921.49	-0.000350952	0.00439789
2923.83	-0.699005	-0.0176636
2926.17	-0.000460815	0.00653412
2928.49	0.000131226	0.0043927
2930.83	-0.698456	-0.0176666
2933.17	6.71387e-05	0.0065274
2935.49	0.000125122	0.00439514
2937.83	-0.698425	-0.0176697
2940.17	-0.000720215	0.00653076
2942.49	0.000924683	0.00438965
2944.83	-0.699341	-0.0176605
2947.17	-0.000524902	0.00652527
2949.49	0.000726318	0.00439453
2951.83	-0.699219	-0.0176483
2954.17	0.000363159	0.00651672
2956.49	0.000109863	0.00440033
2958.83	-0.697601	-0.0176483
2961.17	0.000317383	0.00651184
2963.49	0.000497437	0.00439484
2965.83	-0.699188	-0.0176483
2968.17	0.000463867	0.0065152
2970.49	0.000961304	0.00439667
2972.83	-0.697571	-0.0176514
2975.17	0.000418091	0.00651184
2977.49	-0.000704956	0.00440887
2979.83	-0.697876	-0.0176483
2982.17	-0.000622559	0.00651611
2984.49	0.000982666	0.00439758
2986.83	-0.69754	-0.0176453
2989.17	-0.000744629	0.00651276
2991.49	0.000973511	0.00440155
2993.83	-0.698303	-0.01763
2996.17	0.000875854	0.00649963
2998.49	0.000540161	0.00440735
3000.83	-0.698486	-0.0176208
3003.17	-0.000292969	0.00650848
3005.49	0.000942993	0.00440338
3007.79	0.000949097	0.00312561