File: Edgar/20230821/20230821/electrochromic_setup_test/test_2_1_0p5_OCP/CV_2_b.txt
Time (s)	WE(1).Potential (V)	WE(1).Current (A)
254.256	-0.425018	7.82776e-07
254.866	-0.411957	2.35504e-06
255.477	-0.40094	2.78564e-06
256.087	-0.388428	2.98004e-06
256.697	-0.375458	3.13721e-06
257.308	-0.363831	3.19519e-06
257.918	-0.351196	3.22571e-06
258.529	-0.339447	3.22571e-06
259.139	-0.326721	3.2074e-06
259.749	-0.315216	3.17078e-06
260.36	-0.302277	3.1311e-06
260.97	-0.290314	3.08228e-06
261.58	-0.278168	3.04565e-06
262.191	-0.265289	3.00293e-06
262.801	-0.253937	2.948e-06
263.411	-0.241089	2.92969e-06
264.022	-0.22876	2.88086e-06
264.632	-0.216827	2.85645e-06
265.242	-0.204529	2.84119e-06
265.853	-0.192383	2.82288e-06
266.463	-0.180206	2.83203e-06
267.073	-0.167725	2.82593e-06
267.684	-0.156311	2.81982e-06
268.294	-0.143646	2.84424e-06
268.904	-0.1315	2.85034e-06
269.515	-0.119263	2.86865e-06
270.125	-0.106628	2.90222e-06
270.736	-0.0950012	2.90527e-06
271.346	-0.0827332	2.91443e-06
271.956	-0.0705566	2.93884e-06
272.567	-0.0587769	2.94495e-06
273.177	-0.0463928	2.97546e-06
273.787	-0.0331635	2.99683e-06
274.398	-0.0220276	2.98767e-06
275.008	-0.00883789	3.02124e-06
275.618	0.00250549	3.02429e-06
276.229	0.0148804	3.03345e-06
276.839	0.027533	3.04565e-06
277.449	0.0391235	3.03345e-06
278.06	0.0519714	3.03955e-06
278.67	0.0637512	3.05176e-06
279.28	0.0705566	2.97241e-06
279.891	0.0589905	2.78931e-06
280.501	0.0473389	2.67029e-06
281.111	0.0347229	2.56042e-06
281.722	0.0228027	2.46887e-06
282.332	0.0102966	2.37427e-06
282.943	-0.00198975	2.30408e-06
283.553	-0.0144043	2.20642e-06
284.163	-0.0258881	2.10876e-06
284.774	-0.0386963	2.02942e-06
285.384	-0.0504761	1.94397e-06
285.994	-0.0630798	1.85547e-06
286.605	-0.0748901	1.79443e-06
287.215	-0.0870972	1.69678e-06
287.825	-0.0997925	1.62659e-06
288.436	-0.112	1.53809e-06
289.046	-0.123566	1.44958e-06
289.656	-0.135895	1.36108e-06
290.267	-0.147919	1.28174e-06
290.877	-0.161285	1.171875E-06
291.487	-0.172455	1.10168e-06
292.098	-0.185486	1.00403e-06
292.708	-0.196747	9.09424e-07
293.318	-0.209442	8.08411e-07
293.929	-0.22171	6.90308e-07
294.539	-0.234039	6.04248e-07
295.15	-0.246521	4.29993e-07
295.76	-0.259033	2.6001e-07
296.37	-0.270081	7.8125E-08
296.981	-0.284058	-1.9165e-07
297.591	-0.294495	-4.45557e-07
298.201	-0.306793	-7.74841e-07
298.812	-0.319	-1.2088e-06
299.422	-0.330139	-1.71234e-06
300.032	-0.342468	-2.36572e-06
300.643	-0.35556	-3.09174e-06
301.253	-0.368042	-3.90015e-06
301.863	-0.379944	-4.67529e-06
302.474	-0.391937	-5.29785e-06
303.084	-0.404297	-5.72815e-06
303.694	-0.417328	-6.05469e-06
304.305	-0.429504	-6.27747e-06
304.915	-0.441376	-6.4209e-06
305.525	-0.453339	-6.61621e-06
306.136	-0.465149	-6.86035e-06
306.746	-0.477081	-7.17468e-06
307.357	-0.48996	-7.62939e-06
307.967	-0.502319	-8.12073e-06
308.577	-0.513855	-8.72803e-06
309.188	-0.526031	-9.43909e-06
309.798	-0.539185	-1.01746e-05
310.408	-0.550934	-1.10413e-05
311.019	-0.563324	-1.1969e-05
311.629	-0.575195	-1.30127e-05
312.239	-0.587708	-1.41663e-05
312.85	-0.600159	-1.5448e-05
313.46	-0.611786	-1.69373e-05
314.07	-0.623718	-1.85028e-05
314.681	-0.636078	-2.02698e-05
315.291	-0.648529	-2.22687e-05
315.901	-0.660339	-2.4469e-05
316.512	-0.672211	-2.6886e-05
317.122	-0.684113	-2.96143e-05
317.732	-0.697754	-3.2547e-05
318.343	-0.709503	-3.57697e-05
318.953	-0.722076	-3.9328e-05
319.564	-0.733673	-4.31519e-05
320.174	-0.74588	-4.73633e-05
320.784	-0.759583	-5.19104e-05
321.395	-0.770874	-5.68848e-05
322.005	-0.782776	-6.22864e-05
322.615	-0.795288	-6.81152e-05
323.226	-0.807495	-7.43713e-05
323.836	-0.820007	-8.10242e-05
324.446	-0.831909	-8.80432e-05
325.057	-0.844421	-9.552e-05
325.667	-0.856323	-0.000103149
326.277	-0.86853	-0.000111053
326.888	-0.880127	-0.00011911
327.498	-0.893555	-0.000127197
328.108	-0.905151	-0.000135437
328.719	-0.917664	-0.000143768
329.329	-0.928955	-0.000152069
329.939	-0.941162	-0.000160553
330.55	-0.953979	-0.00016864
331.16	-0.966187	-0.000176758
331.771	-0.979004	-0.000184875
332.381	-0.990906	-0.000192963
332.991	-1.0022	-0.00020108
333.602	-1.01501	-0.000209045
334.212	-1.02722	-0.000217163
334.822	-1.04004	-0.000225281
335.433	-1.05164	-0.000233246
336.043	-1.06323	-0.000241333
336.653	-1.07635	-0.000249268
337.264	-1.08887	-0.000257599
337.874	-1.10077	-0.000265808
338.484	-1.11237	-0.000273315
339.095	-1.12427	-0.000280945
339.705	-1.13739	-0.000288879
340.315	-1.1499	-0.000298279
340.926	-1.1615	-0.000310455
341.536	-1.17401	-0.000325836
342.146	-1.18622	-0.000346191
342.757	-1.19781	-0.000374878
343.367	-1.21063	-0.000412842
343.978	-1.22284	-0.000461273
344.588	-1.23413	-0.00052124
345.198	-1.24634	-0.000596008
345.809	-1.25885	-0.000684814
346.419	-1.27106	-0.000788269
347.029	-1.28326	-0.000908203
347.64	-1.29578	-0.00104309
348.25	-1.30829	-0.0011908
348.86	-1.31958	-0.00135803
349.471	-1.3327	-0.00153961
350.081	-1.34521	-0.00173889
350.691	-1.35681	-0.00195557
351.302	-1.36871	-0.00218811
351.912	-1.38123	-0.00243744
352.522	-1.39343	-0.00270264
353.133	-1.40594	-0.00298218
353.743	-1.41815	-0.00327209
354.353	-1.42578	-0.00346893
354.964	-1.41266	-0.0032428
355.574	-1.40015	-0.00300049
356.185	-1.38885	-0.0027533
356.795	-1.37726	-0.00250824
357.405	-1.36475	-0.00227173
358.016	-1.35193	-0.00204498
358.626	-1.33972	-0.00183197
359.236	-1.32751	-0.00163422
359.847	-1.31531	-0.00145142
360.457	-1.3028	-0.0012854
361.067	-1.2915	-0.00113556
361.678	-1.27869	-0.00100006
362.288	-1.26617	-0.000878601
362.898	-1.25366	-0.000770874
363.509	-1.24176	-0.000675049
364.119	-1.23016	-0.000590515
364.729	-1.21765	-0.000515442
365.34	-1.20514	-0.000449585
365.95	-1.19324	-0.000391571
366.56	-1.18134	-0.000340729
367.171	-1.16913	-0.000296143
367.781	-1.15692	-0.000256989
368.392	-1.14441	-0.000222412
369.002	-1.13251	-0.000192291
369.612	-1.11969	-0.000165985
370.223	-1.10809	-0.000142914
370.833	-1.09619	-0.000122925
371.443	-1.08368	-0.000105804
372.054	-1.07086	-9.11255e-05
372.664	-1.05804	-7.87659e-05
373.274	-1.04706	-6.83289e-05
373.885	-1.03455	-5.96313e-05
374.495	-1.02203	-5.23987e-05
375.105	-1.00952	-4.62646e-05
375.716	-0.997314	-4.11072e-05
376.326	-0.986023	-3.66272e-05
376.936	-0.973206	-3.25897e-05
377.547	-0.960999	-2.87842e-05
378.157	-0.949707	-2.49664e-05
378.767	-0.936279	-2.09625e-05
379.378	-0.924377	-1.65558e-05
379.988	-0.912781	-1.15173e-05
380.599	-0.899658	-5.61829e-06
381.209	-0.888672	1.47705e-06
381.819	-0.875854	9.56421e-06
382.43	-0.863342	1.8869e-05
383.04	-0.851135	2.90955e-05
383.65	-0.838928	3.87054e-05
384.261	-0.827637	4.67529e-05
384.871	-0.81604	5.31921e-05
385.481	-0.802002	5.87463e-05
386.092	-0.79071	6.36292e-05
386.702	-0.778503	6.78101e-05
387.312	-0.766907	7.17773e-05
387.923	-0.754395	7.547e-05
388.533	-0.741882	7.90405e-05
389.143	-0.729675	8.30078e-05
389.754	-0.716919	8.74939e-05
390.364	-0.705139	9.2926e-05
390.974	-0.693054	9.93347e-05
391.585	-0.680237	0.000106842
392.195	-0.668518	0.000115448
392.806	-0.65625	0.000125031
393.416	-0.644379	0.00013562
394.026	-0.631622	0.00014679
394.637	-0.619507	0.00015802
395.247	-0.607697	0.00016861
395.857	-0.595093	0.000176849
396.468	-0.582855	0.000180511
397.078	-0.570618	0.000178467
397.688	-0.559174	0.000171326
398.299	-0.546265	0.000161774
398.909	-0.533936	0.000154877
399.519	-0.5224	0.00015387
400.13	-0.510254	0.000141144
400.74	-0.497375	0.000120972
401.35	-0.485382	0.00010733
401.961	-0.473206	0.00010022
402.571	-0.461456	9.68323e-05
403.181	-0.448547	9.53674e-05
403.792	-0.436798	9.49707e-05
404.28	-0.427185	9.51233e-05