File: Edgar/20230821/20230821/electrochromic_setup_test/test_2_1_0p5_OCP/CV_2.txt
Time (s)	WE(1).Potential (V)	WE(1).Current (A)
30.4969	0.0280457	2.96021e-08
31.1073	0.0395386	3.42712e-08
31.7176	0.0523682	4.31213e-08
32.328	0.0653992	5.41992e-08
32.9383	0.0736389	4.30908e-08
33.5487	0.0887451	5.02319e-08
34.159	0.100433	6.11572e-08
34.7694	0.110992	4.84314e-08
35.3797	0.127014	6.35071e-08
35.9901	0.13739	6.53687e-08
36.6004	0.149841	6.56738e-08
37.2108	0.163116	7.19299e-08
37.8211	0.171661	6.56128e-08
38.4315	0.186371	7.0343e-08
39.0418	0.195282	6.70776e-08
39.6522	0.209198	6.89392e-08
40.2625	0.222961	8.1665e-08
40.8729	0.235535	9.17358e-08
41.4832	0.247192	9.13696e-08
42.0936	0.260406	1.05682e-07
42.7039	0.270996	9.56421e-08
43.3143	0.28363	1.11359e-07
43.9246	0.296814	1.15479e-07
44.535	0.305878	1.15906e-07
45.1453	0.319702	1.23566e-07
45.7557	0.329376	1.2323e-07
46.366	0.343506	1.26923e-07
46.9764	0.357239	1.35803e-07
47.5867	0.369415	1.34613e-07
48.1971	0.381348	1.38123e-07
48.8074	0.394806	1.4624e-07
49.4178	0.405731	1.41571e-07
50.0281	0.417511	1.51154e-07
50.6385	0.42984	1.41296e-07
51.2488	0.440186	1.49109e-07
51.8592	0.453644	1.52618e-07
52.4695	0.463623	1.48346e-07
53.0799	0.476929	1.52069e-07
53.6902	0.491394	1.54724e-07
54.3006	0.503479	1.60797e-07
54.9109	0.513092	1.57074e-07
55.5213	0.524597	1.34796e-07
56.1316	0.510773	9.23157e-08
56.742	0.500214	7.61108e-08
57.3523	0.487427	5.859375E-08
57.9627	0.472961	4.63867e-08
58.573	0.461365	3.70789e-08
59.1834	0.449219	3.15552e-08
59.7937	0.435303	2.27966e-08
60.4041	0.425323	2.67944e-08
61.0144	0.4133	1.6449e-08
61.6248	0.399109	5.95093e-09
62.2351	0.389557	1.14746e-08
62.8455	0.376221	4.76074e-09
63.4558	0.366821	9.09424e-09
64.0662	0.352448	4.60815e-09
64.6765	0.339874	-7.75146e-09
65.2869	0.327393	-1.29089e-08
65.8972	0.316132	-1.35498e-08
66.5076	0.301147	-2.56348e-08
67.1179	0.291718	-3.23181e-08
67.7283	0.278778	-3.7323e-08
68.3386	0.266632	-4.01917e-08
68.949	0.255646	-3.97339e-08
69.5593	0.242981	-4.23584e-08
70.1697	0.229584	-5.76172e-08
70.78	0.22049	-5.13611e-08
71.3904	0.205566	-5.76172e-08
72.0007	0.193634	-6.10352e-08
72.6111	0.183472	-6.06079e-08
73.2214	0.166779	-6.82068e-08
73.8318	0.156921	-6.93054e-08
74.4421	0.142365	-7.547e-08
75.0525	0.13092	-8.01392e-08
75.6628	0.120239	-7.82471e-08
76.2732	0.108704	-7.33337e-08
76.8835	0.0936584	-8.64563e-08
77.4939	0.0856018	-7.59583e-08
78.1042	0.0714111	-7.93762e-08
78.7146	0.0612793	-7.94373e-08
79.3249	0.0488892	-7.91931e-08
79.9353	0.0353271	-8.39539e-08
80.5456	0.0231262	-8.27332e-08
81.156	0.0106659	-7.20215e-08
81.7663	-0.00153809	-1.0318e-07
82.3767	-0.0136871	-8.82263e-08
82.987	-0.0261475	-9.77173e-08
83.5974	-0.0378754	-1.01807e-07
84.2077	-0.0497986	-9.55811e-08
84.8181	-0.0621643	-9.76257e-08
85.4284	-0.0743713	-1.00616e-07
86.0388	-0.0843201	-1.04584e-07
86.6491	-0.0996399	-1.17218e-07
87.2595	-0.110291	-1.16028e-07
87.8698	-0.121735	-1.25916e-07
88.4802	-0.137146	-1.46484e-07
89.0905	-0.147797	-1.58539e-07
89.7009	-0.159241	-1.66962e-07
90.3112	-0.173401	-2.13898e-07
90.9216	-0.184052	-2.37396e-07
91.5319	-0.199646	-2.78198e-07
92.1423	-0.209503	-4.36707e-07
92.7526	-0.221008	-5.18799e-07
93.363	-0.232819	-6.30798e-07
93.9733	-0.245453	-7.92236e-07
94.5837	-0.257141	-9.67102e-07
95.194	-0.269745	-1.2326e-06
95.8044	-0.280518	-1.51917e-06
96.4147	-0.294128	-1.97418e-06
97.0251	-0.306488	-2.5528e-06
97.6354	-0.319061	-3.32031e-06
98.2458	-0.33075	-4.27551e-06
98.8561	-0.343628	-5.57861e-06
99.4665	-0.355835	-7.23572e-06
100.077	-0.367584	-9.51233e-06
100.687	-0.379242	-1.24329e-05
101.298	-0.391296	-1.62567e-05
101.908	-0.404053	-2.08771e-05
102.518	-0.416046	-2.57538e-05
103.129	-0.428711	-2.97302e-05
103.739	-0.440948	-3.20587e-05
104.349	-0.453247	-3.27637e-05
104.96	-0.465607	-3.24249e-05
105.57	-0.477814	-3.14636e-05
106.18	-0.490082	-3.04291e-05
106.791	-0.501678	-2.97302e-05
107.401	-0.514282	-2.95685e-05
108.011	-0.525848	-2.99896e-05
108.622	-0.538269	-3.09326e-05
109.232	-0.551025	-3.22113e-05
109.842	-0.562927	-3.37524e-05
110.453	-0.574615	-3.55377e-05
111.063	-0.587433	-3.74603e-05
111.673	-0.599884	-3.96576e-05
112.284	-0.611572	-4.19922e-05
112.894	-0.623749	-4.45862e-05
113.505	-0.635773	-4.72412e-05
114.115	-0.647766	-5.01709e-05
114.725	-0.6604	-5.32532e-05
115.336	-0.672729	-5.65491e-05
115.946	-0.684875	-6.00586e-05
116.556	-0.697296	-6.37817e-05
117.167	-0.709351	-6.78406e-05
117.777	-0.720917	-7.21436e-05
118.387	-0.733246	-7.67517e-05
118.998	-0.745483	-8.1665e-05
119.608	-0.758972	-8.68835e-05
120.218	-0.770569	-9.24988e-05
120.829	-0.782776	-9.83276e-05
121.439	-0.795288	-0.000104523
122.049	-0.80658	-0.000111328
122.66	-0.819702	-0.000118378
123.27	-0.830994	-0.000125732
123.88	-0.844116	-0.000133514
124.491	-0.856323	-0.000141449
125.101	-0.868835	-0.000149658
125.712	-0.879822	-0.000158173
126.322	-0.892334	-0.000166656
126.932	-0.905457	-0.000175385
127.543	-0.916443	-0.000184265
128.153	-0.92926	-0.000193146
128.763	-0.941162	-0.000202301
129.374	-0.954285	-0.000211304
129.984	-0.965271	-0.000220245
130.594	-0.9729	-0.000203979
131.205	-0.961914	-0.000148804
131.815	-0.949097	-0.000119293
132.425	-0.93689	-9.82361e-05
133.036	-0.924072	-8.19397e-05
133.646	-0.911865	-6.85425e-05
134.256	-0.899353	-5.73425e-05
134.867	-0.888062	-4.77295e-05
135.477	-0.875244	-3.9389e-05
136.087	-0.863647	-3.19946e-05
136.698	-0.85022	-2.53815e-05
137.308	-0.838928	-1.95526e-05
137.919	-0.826721	-1.4328e-05
138.529	-0.814209	-9.69849e-06
139.139	-0.802002	-5.60608e-06
139.75	-0.7901	-1.91345e-06
140.36	-0.777893	1.32751e-06
140.97	-0.765076	4.26331e-06
141.581	-0.754089	6.78406e-06
142.191	-0.741547	8.91113e-06
142.801	-0.728516	1.08704e-05
143.412	-0.716187	1.24329e-05
144.022	-0.704712	1.37146e-05
144.632	-0.692566	1.48865e-05
145.243	-0.680328	1.57379e-05
145.853	-0.668213	1.64795e-05
146.463	-0.656311	1.70258e-05
147.074	-0.643982	1.74377e-05
147.684	-0.63205	1.77307e-05
148.294	-0.618744	1.7926e-05
148.905	-0.607666	1.796875E-05
149.515	-0.595154	1.80237e-05
150.126	-0.582886	1.79962e-05
150.736	-0.570038	1.79138e-05
151.346	-0.558472	1.78497e-05
151.957	-0.546265	1.77155e-05
152.567	-0.533661	1.75934e-05
153.177	-0.521637	1.74194e-05
153.788	-0.509003	1.72028e-05
154.398	-0.496979	1.69647e-05
155.008	-0.485413	1.66748e-05
155.619	-0.472687	1.63208e-05
156.229	-0.460541	1.59607e-05
156.839	-0.448944	1.55518e-05
157.45	-0.43631	1.50909e-05
158.06	-0.423584	1.46271e-05
158.67	-0.411774	1.41144e-05
159.281	-0.400085	1.36169e-05
159.891	-0.387299	1.31134e-05
160.501	-0.375702	1.26007e-05
161.112	-0.363342	1.20911e-05
161.722	-0.351227	1.16058e-05
162.333	-0.338562	1.10992e-05
162.943	-0.326233	1.06354e-05
163.553	-0.314178	1.01929e-05
164.164	-0.301788	9.74426e-06
164.774	-0.290253	9.35059e-06
165.384	-0.277954	8.94165e-06
165.995	-0.264801	8.60291e-06
166.605	-0.253571	8.28247e-06
167.215	-0.241364	7.96509e-06
167.826	-0.228455	7.70264e-06
168.436	-0.21701	7.41882e-06
169.046	-0.204346	7.16553e-06
169.657	-0.191742	6.94275e-06
170.267	-0.180298	6.73523e-06
170.877	-0.167419	6.55518e-06
171.488	-0.155884	6.39954e-06
172.098	-0.142792	6.2561e-06
172.708	-0.13092	6.11877e-06
173.319	-0.11911	6.00891e-06
173.929	-0.107147	5.90515e-06
174.54	-0.0940552	5.78308e-06
175.15	-0.0828857	5.71289e-06
175.76	-0.0706482	5.60913e-06
176.371	-0.0579834	5.51453e-06
176.981	-0.0457886	5.45654e-06
177.591	-0.0330139	5.35278e-06
178.202	-0.0207336	5.3009e-06
178.812	-0.00884399	5.22156e-06
179.422	0.00324097	5.15442e-06
180.033	0.0152557	5.09644e-06
180.521	0.025647	5.03845e-06