File: Edgar/20230821/20230821/electrochromic_setup_test/test_2_1_0p5_OCP/OCP_1_b.txt
Time (s)	WE(1).Potential (V)
4.32677	-0.429169
5.32677	-0.429047
6.32677	-0.428894
7.32677	-0.428802
8.32677	-0.42868
9.32677	-0.428558
10.3268	-0.428436
11.3268	-0.428314
12.3268	-0.428192
13.3268	-0.42807
14.3268	-0.427948
15.3268	-0.427856
16.3268	-0.427734
17.3268	-0.427612
18.3268	-0.42749
19.3268	-0.427368
20.3268	-0.427246
21.3268	-0.427155
22.3268	-0.427032
23.3268	-0.42691