File: Edgar/20230821/20230821/electrochromic_setup_test/test_2_1_0p5_OCP/OCP_1.txt
Time (s)	WE(1).Potential (V)
4.30578	0.0235931
5.30578	0.0236694
6.30578	0.0237488
7.30578	0.0238281
8.30578	0.0239044
9.30578	0.0239838
10.3058	0.0240631
11.3058	0.0241394
12.3058	0.02421875
13.3058	0.024295
14.3058	0.0243744
15.3058	0.0244537
16.3058	0.0245331
17.3058	0.0246124
18.3058	0.0246887
19.3058	0.024765
20.3058	0.0248413
21.3058	0.0249207
22.3058	0.025
23.3058	0.0250763