File: Edgar/20230907/20230907/electrodeposition_WO3_thin_films_onto_ITO_A/wo3_film_continuous_electrodeposition_B/CA_2
Time (s)	WE(1).Potential (V)	WE(1).Current (A)
33.4471	-0.699921	-0.00482574
35.4471	-0.698914	-0.00476227
37.4471	-0.699799	-0.004198
39.4471	-0.699097	-0.00377441
41.4471	-0.699677	-0.00344757
43.4471	-0.699677	-0.00318756
45.4471	-0.699097	-0.00297333
47.4471	-0.699493	-0.0027951
49.4471	-0.699646	-0.00264343
51.4471	-0.699005	-0.00251312
53.4471	-0.699768	-0.00240143
55.4471	-0.698944	-0.00230255
57.4471	-0.699127	-0.00221588
59.4471	-0.699432	-0.00213837
61.4471	-0.699646	-0.00207001
63.4471	-0.698914	-0.00200928
65.4471	-0.699585	-0.00195404
67.4471	-0.699707	-0.00190369
69.4471	-0.699707	-0.00185791
71.4471	-0.699005	-0.00181488
73.4471	-0.699554	-0.00177551
75.4471	-0.69986	-0.00173737
77.4471	-0.69931	-0.00170166
79.4471	-0.699707	-0.00166718
81.4471	-0.69989	-0.00163452
83.4471	-0.699097	-0.00160248
85.4471	-0.699249	-0.00157135
87.4471	-0.699738	-0.00154114
89.4471	-0.699829	-0.00151154
91.4471	-0.699371	-0.00148254
93.4471	-0.699921	-0.00145447
95.4471	-0.699829	-0.00142731
97.4471	-0.699677	-0.00140076
99.4471	-0.699158	-0.00137451
101.447	-0.699799	-0.00134918
103.447	-0.699829	-0.00132446
105.447	-0.699188	-0.00130035
107.447	-0.69928	-0.00127716
109.447	-0.699249	-0.00125397
111.447	-0.699799	-0.00123108
113.447	-0.699768	-0.00120911
115.447	-0.699677	-0.00118774
117.447	-0.699524	-0.00116638
119.447	-0.699615	-0.00114624
121.447	-0.699158	-0.00112579
123.447	-0.699463	-0.00110596
125.447	-0.699677	-0.00108643
127.447	-0.699646	-0.0010672
129.447	-0.699463	-0.00104828
131.447	-0.699036	-0.00102997
133.447	-0.699341	-0.00101227
135.447	-0.699005	-0.000995789
137.447	-0.699738	-0.000978394
139.447	-0.699097	-0.000961304
141.447	-0.699677	-0.000944824
143.447	-0.699524	-0.000928955
145.447	-0.698822	-0.000914001
147.447	-0.698975	-0.000899048
149.447	-0.699341	-0.000884705
151.447	-0.699554	-0.000870667
153.447	-0.699677	-0.000856934
155.447	-0.699371	-0.000843811
157.447	-0.699402	-0.000830688
159.447	-0.699371	-0.000818176
161.447	-0.699615	-0.000806274
163.447	-0.699463	-0.000794678
165.447	-0.699066	-0.000783386
167.447	-0.699127	-0.00077179
169.447	-0.698914	-0.000761719
171.447	-0.699097	-0.000751343
173.447	-0.699066	-0.000741272
175.447	-0.699371	-0.000731506
177.447	-0.698914	-0.000722961
179.447	-0.699036	-0.000713501
181.447	-0.698914	-0.000704651
183.447	-0.698975	-0.000696106
185.447	-0.699219	-0.000687866
187.447	-0.698975	-0.000679626
189.447	-0.699158	-0.000671692
191.447	-0.699646	-0.0006640625
193.447	-0.699524	-0.000656738
195.447	-0.699738	-0.000649414
197.447	-0.699768	-0.0006427
199.447	-0.699524	-0.000635986
201.447	-0.699738	-0.000629272
203.447	-0.698975	-0.000623169
205.447	-0.699707	-0.00061676
207.447	-0.699371	-0.000610657
209.447	-0.699524	-0.000605164
211.447	-0.699249	-0.00059967
213.447	-0.699066	-0.000594177
215.447	-0.698975	-0.000588989
217.447	-0.699738	-0.000583801
219.447	-0.699799	-0.000578918
221.447	-0.699646	-0.000574036
223.447	-0.699188	-0.000569458
225.447	-0.699066	-0.00056488
227.447	-0.699219	-0.000561218
229.447	-0.699493	-0.000556946
231.447	-0.699707	-0.000552673
233.447	-0.699554	-0.000548706
235.447	-0.699829	-0.000544739
237.447	-0.699036	-0.000540466
239.447	-0.699005	-0.000536804
241.447	-0.699188	-0.000532532
243.447	-0.699646	-0.000528564
245.447	-0.699036	-0.000525208
247.447	-0.69928	-0.000521851
249.447	-0.699738	-0.000518188
251.447	-0.69931	-0.000515137
253.447	-0.699341	-0.00051178
255.447	-0.698975	-0.000508728
257.447	-0.698944	-0.000505981
259.447	-0.699005	-0.00050293
261.447	-0.699219	-0.000500183
263.447	-0.699402	-0.000497437
265.447	-0.699707	-0.000494354
267.447	-0.699005	-0.00049173
269.447	-0.699646	-0.000489227
271.447	-0.699585	-0.000486603
273.447	-0.699097	-0.000484222
275.447	-0.699615	-0.000481934
277.447	-0.698944	-0.000479675
279.447	-0.699402	-0.000477448
281.447	-0.699493	-0.000475159
283.447	-0.699249	-0.000472961
285.447	-0.698944	-0.000470917
287.447	-0.699646	-0.000468903
289.447	-0.699127	-0.000466766
291.447	-0.699585	-0.0004646
293.447	-0.699493	-0.00046283
295.447	-0.699768	-0.00046106
297.447	-0.699219	-0.00045932
299.447	-0.699127	-0.00045755
301.447	-0.699005	-0.000455902
303.447	-0.699768	-0.000454163
305.447	-0.699249	-0.000452332
307.447	-0.699677	-0.000450775
309.447	-0.699219	-0.000449005
311.447	-0.699554	-0.000447235
313.447	-0.699554	-0.00044577
315.447	-0.699097	-0.000443939
317.447	-0.699005	-0.00044223
319.447	-0.699768	-0.000440735
321.447	-0.698914	-0.000439331
323.447	-0.699707	-0.000438354
325.447	-0.699493	-0.000436676
327.447	-0.699341	-0.000435303
329.447	-0.699738	-0.000434113
331.447	-0.699005	-0.000432556
333.447	-0.699738	-0.000431274
335.447	-0.699097	-0.000429962
337.447	-0.699585	-0.000428589
339.447	-0.698975	-0.000427673
341.447	-0.699799	-0.000426453
343.447	-0.699219	-0.000425385
345.447	-0.698944	-0.000423859
347.447	-0.699799	-0.000422882
349.447	-0.699371	-0.000421661
351.447	-0.699554	-0.000420715
353.447	-0.699707	-0.000419556
355.447	-0.699554	-0.000418365
357.447	-0.699097	-0.000417572
359.447	-0.69931	-0.000416626
361.447	-0.699005	-0.00041568
363.447	-0.699493	-0.000414734
365.447	-0.699188	-0.0004140625
367.447	-0.699738	-0.000413025
369.447	-0.699005	-0.000412201
371.447	-0.699005	-0.000411194
373.447	-0.699677	-0.000410461
375.447	-0.699066	-0.000409943
377.447	-0.699707	-0.000408997
379.447	-0.699036	-0.000407959
381.447	-0.699127	-0.000407257
383.447	-0.699615	-0.000406372
385.447	-0.699799	-0.000405487
387.447	-0.699188	-0.000404846
389.447	-0.699677	-0.000404297
391.447	-0.699646	-0.000403473
393.447	-0.699036	-0.000402802
395.447	-0.699188	-0.000402191
397.447	-0.699707	-0.00040155
399.447	-0.699585	-0.000400787
401.447	-0.699341	-0.000400177
403.447	-0.699677	-0.000399658
405.447	-0.69931	-0.000398956
407.447	-0.699524	-0.000398712
409.447	-0.699005	-0.000397858
411.447	-0.699677	-0.0003974
413.447	-0.699066	-0.000397034
415.447	-0.699005	-0.000396301
417.447	-0.699463	-0.000395599
419.447	-0.699005	-0.000394958
421.447	-0.699615	-0.000394562
423.447	-0.699005	-0.000394104
425.447	-0.699768	-0.000393616
427.447	-0.699768	-0.000393311
429.447	-0.699493	-0.000392731
431.447	-0.699463	-0.00039267
433.447	-0.699402	-0.000392273
435.447	-0.699036	-0.000391785
437.447	-0.699219	-0.000391266
439.447	-0.69931	-0.000390808
441.447	-0.698975	-0.0003909
443.447	-0.699615	-0.000390717
445.447	-0.699646	-0.00039035
447.447	-0.698944	-0.000390106
449.447	-0.699829	-0.000389374
451.447	-0.699402	-0.000388824
453.447	-0.699585	-0.000388397
455.447	-0.699127	-0.000388031
457.447	-0.69989	-0.000387482
459.447	-0.699768	-0.000387451
461.447	-0.699463	-0.000386749
463.447	-0.699158	-0.000386719
465.447	-0.698853	-0.000386353
467.447	-0.698975	-0.000386505
469.447	-0.699188	-0.000386139
471.447	-0.699646	-0.000386383
473.447	-0.699158	-0.00038623
475.447	-0.699097	-0.000386169
477.447	-0.699707	-0.000385834
479.447	-0.699524	-0.000385773
481.447	-0.699493	-0.000385742
483.447	-0.699371	-0.000385376
485.447	-0.699432	-0.000385223
487.447	-0.699738	-0.000385315
489.447	-0.699341	-0.000385101
491.447	-0.699707	-0.000384949
493.447	-0.699066	-0.000384796
495.447	-0.699615	-0.000384338
497.447	-0.699005	-0.000384064
499.447	-0.699646	-0.000384094
501.447	-0.69931	-0.000384064
503.447	-0.699493	-0.000383423
505.447	-0.698914	-0.000383759
507.447	-0.699738	-0.000383545
509.447	-0.699524	-0.000383118
511.447	-0.699524	-0.000382874
513.447	-0.699432	-0.000382782
515.447	-0.699646	-0.000382416
517.447	-0.699646	-0.000382019
519.447	-0.699371	-0.000381836
521.447	-0.699219	-0.000381897
523.447	-0.698944	-0.000381958
525.447	-0.699371	-0.000382111
527.447	-0.699066	-0.000381836
529.447	-0.699615	-0.000381348
531.447	-0.699066	-0.000381683
533.447	-0.699188	-0.000381348
535.447	-0.699341	-0.0003815
537.447	-0.698944	-0.000381561
539.447	-0.699829	-0.000381348
541.447	-0.698975	-0.000381531
543.447	-0.698914	-0.000381165
545.447	-0.69928	-0.000381439
547.447	-0.699829	-0.000381042
549.447	-0.699036	-0.000380615
551.447	-0.699554	-0.000380829
553.447	-0.699005	-0.000380707
555.447	-0.699738	-0.000380859
557.447	-0.698944	-0.000381439
559.447	-0.699738	-0.000381073
561.447	-0.699463	-0.000380096
563.447	-0.698883	-0.000381073
565.447	-0.699341	-0.000380768
567.447	-0.699402	-0.000381073
569.447	-0.698975	-0.000380768
571.447	-0.699371	-0.000380951
573.447	-0.699524	-0.000381226
575.447	-0.699768	-0.0003815
577.447	-0.699005	-0.000381348
579.447	-0.698944	-0.000381317
581.447	-0.698853	-0.000381012
583.447	-0.699738	-0.000381439
585.447	-0.699707	-0.000381409
587.447	-0.698975	-0.000381714
589.447	-0.699005	-0.000381989
591.447	-0.699097	-0.000381714
593.447	-0.699005	-0.00038092
595.447	-0.699005	-0.000382111
597.447	-0.699768	-0.00038205
599.447	-0.699188	-0.000382568
601.447	-0.699707	-0.000382202
603.447	-0.699341	-0.000382141
605.447	-0.699188	-0.00038205
607.447	-0.699402	-0.000382263
609.447	-0.699036	-0.000382141
611.447	-0.699127	-0.000382263
613.447	-0.699738	-0.000382385
615.447	-0.699036	-0.000382355
617.447	-0.699646	-0.000381897
619.447	-0.699615	-0.000382019
621.447	-0.699738	-0.000382355
623.447	-0.699707	-0.000382477
625.447	-0.699829	-0.000381866
627.447	-0.699585	-0.000380768
629.447	-0.699127	-0.000381805
631.447	-0.699066	-0.0003815
633.347	-0.699829	-0.000381531