File: Edgar/20230907/20230907/electrodeposition_WO3_thin_films_onto_ITO_A/wo3_film_continuous_electrodeposition_B/OCP_3
Time (s)	WE(1).Potential (V)	OCP value (V)
634.358	-0.509949	0.0174797
635.358	-0.440887
636.358	-0.375061
637.358	-0.32309
638.358	-0.28244
639.358	-0.254639
640.358	-0.235199
641.358	-0.220734
642.358	-0.209259
643.358	-0.199738
644.358	-0.191406
645.358	-0.182983
646.358	-0.176453
647.358	-0.170654
648.358	-0.16568
649.358	-0.161346
650.358	-0.157501
651.358	-0.154266
652.358	-0.150909
653.358	-0.1484375
654.358	-0.145813
655.358	-0.143494
656.358	-0.141174
657.358	-0.13855
658.358	-0.136719
659.358	-0.135376
660.358	-0.134216
661.358	-0.132904
662.358	-0.132019
663.358	-0.130981
664.358	-0.130219
665.358	-0.129517
666.358	-0.128815
667.358	-0.128143
668.358	-0.127716
669.358	-0.127045
670.358	-0.126129
671.358	-0.125488
672.358	-0.124786
673.358	-0.123962
674.358	-0.123169
675.358	-0.122284
676.358	-0.121155
677.358	-0.119934
678.358	-0.11853
679.358	-0.116699
680.358	-0.114594
681.358	-0.112091
682.358	-0.109436
683.358	-0.106964
684.358	-0.10437
685.358	-0.101929
686.358	-0.0997009
687.358	-0.0973816
688.358	-0.0953369
689.358	-0.0934143
690.358	-0.0914612
691.358	-0.0898743
692.358	-0.0881958
693.358	-0.0865784
694.358	-0.0850525
695.358	-0.0834045
696.358	-0.0818481
697.358	-0.0803833
698.358	-0.0791016
699.358	-0.0778503
700.358	-0.0768433
701.358	-0.0755005
702.358	-0.0741577
703.358	-0.0727844
704.358	-0.0716553
705.358	-0.0701904
706.358	-0.0688171
707.358	-0.0676575
708.358	-0.0664978
709.358	-0.0652466
710.358	-0.0640869
711.358	-0.0629272
712.358	-0.0618896
713.358	-0.0609436
714.358	-0.059967
715.358	-0.0588989
716.358	-0.0578613
717.358	-0.0570068
718.358	-0.0558167
719.358	-0.0545959
720.358	-0.0532837
721.358	-0.0521851
722.358	-0.0510254
723.358	-0.0497437
724.358	-0.048468
725.358	-0.0473907
726.358	-0.0462067
727.358	-0.0450806
728.358	-0.043924
729.358	-0.0427765
730.358	-0.0417023
731.358	-0.0407257
732.358	-0.0396881
733.358	-0.0386047
734.358	-0.0375244
735.358	-0.03638
736.358	-0.0351715
737.358	-0.0340668
738.358	-0.0330963
739.358	-0.0319061
740.358	-0.0307007
741.358	-0.0294739
742.358	-0.0282776
743.358	-0.0271271
744.358	-0.0259338
745.358	-0.0247589
746.358	-0.0236877
747.358	-0.0225952
748.358	-0.0214905
749.358	-0.0203796
750.358	-0.019223
751.358	-0.0181244
752.358	-0.0170441
753.358	-0.0159576
754.358	-0.0148773
755.358	-0.0137085
756.358	-0.0125641
757.358	-0.011438
758.358	-0.0103973
759.358	-0.00941162
760.358	-0.00830688
761.358	-0.0072052
762.358	-0.00613708
763.358	-0.00516663
764.358	-0.00419617
765.358	-0.00325928
766.358	-0.0022644
767.358	-0.00127258
768.358	-0.000323486
769.358	0.000613403
770.358	0.00157776
771.358	0.00249939
772.358	0.00342712
773.358	0.00429382
774.358	0.00516663
775.358	0.00600586
776.358	0.00679321
777.358	0.00757141
778.358	0.00833435
779.358	0.00905762
780.358	0.00983887
781.358	0.0105133
782.358	0.0111572
783.358	0.0117706
784.358	0.0120728
785.358	0.0127167
786.358	0.0133453
787.358	0.0139557
788.358	0.0144745
789.358	0.0149841
790.358	0.0154175
791.358	0.0158844
792.358	0.0162628
793.358	0.0166077
794.358	0.0169098
795.358	0.0171906
796.358	0.0174194
797.358	0.0175232
798.358	0.0177643
799.358	0.0179047
800.358	0.0179962
801.358	0.0180481
802.358	0.0180756
803.358	0.0181061
804.358	0.018103
805.358	0.0180786
806.358	0.0180389
807.358	0.01796875
808.358	0.0178986
809.358	0.0178009
810.358	0.017688
811.358	0.0176025
812.358	0.0174622
813.358	0.017392