File: Edgar/20230907/20230907/electrodeposition_WO3_thin_films_onto_ITO_A/wo3_film_continuous_electrodeposition_B/OCP_1
Time (s)	WE(1).Potential (V)	OCP value (V)
2.50524	0.265656	0.251495
3.50524	0.265167
4.50524	0.264679
5.50524	0.253754
6.50524	0.245331
7.50524	0.24118
8.50524	0.239471
9.50524	0.239075
10.5052	0.239471
11.5052	0.240234
12.5052	0.24118
13.5052	0.242218
14.5052	0.243286
15.5052	0.244354
16.5052	0.245361
17.5052	0.246307
18.5052	0.247131
19.5052	0.247833
20.5052	0.248474
21.5052	0.249023
22.5052	0.249481
23.5052	0.249878
24.5052	0.250244
25.5052	0.25061
26.5052	0.250824
27.5052	0.251068
28.5052	0.251251
29.5052	0.251404
30.5052	0.251495
31.5052	0.251587