File: Edgar/20240531/20240531/electrodeposition_pulsed_potential_20240531_B/OCP_3
Time (s)	WE(1).Potential (V)
4456.91	0.505066
4457.91	0.495514
4458.91	0.488403
4459.91	0.48291
4460.91	0.478729
4461.91	0.475555
4462.91	0.473145
4463.91	0.471344
4464.91	0.470001
4465.91	0.469055
4466.91	0.468414
4467.91	0.467987
4468.91	0.467743
4469.91	0.467621
4470.91	0.467621
4471.91	0.467712
4472.91	0.467804
4473.91	0.468018
4474.91	0.468201
4475.91	0.468445
4476.91	0.468719
4477.91	0.468964
4478.91	0.469208
4479.91	0.469513
4480.91	0.469788
4481.91	0.470093
4482.91	0.470367
4483.91	0.470642
4484.91	0.470886
4485.91	0.47113
4486.91	0.471344
4487.91	0.471558
4488.91	0.471771
4489.91	0.471954
4490.91	0.472137
4491.91	0.47229
4492.91	0.472443
4493.91	0.472626
4494.91	0.472748
4495.91	0.4729
4496.91	0.473022
4497.91	0.473145
4498.91	0.473297
4499.91	0.473419
4500.91	0.473541
4501.91	0.473663
4502.91	0.473785
4503.91	0.473907
4504.91	0.473999
4505.91	0.474121
4506.91	0.474213
4507.91	0.474304
4508.91	0.474426
4509.91	0.474518
4510.91	0.474609
4511.91	0.474701
4512.91	0.474792
4513.91	0.474884
4514.91	0.474945
4515.91	0.475006
4516.91	0.475037
4517.91	0.475067
4518.91	0.475037
4519.91	0.475067
4520.91	0.475128
4521.91	0.475128
4522.91	0.475189
4523.91	0.47522
4524.91	0.47525
4525.91	0.475281
4526.91	0.475342
4527.91	0.475372
4528.91	0.475403
4529.91	0.475433
4530.91	0.475433
4531.91	0.475464
4532.91	0.475525
4533.91	0.475555
4534.91	0.475586
4535.91	0.475586
4536.91	0.475586
4537.91	0.475586
4538.91	0.475616
4539.91	0.475616
4540.91	0.475647
4541.91	0.475647
4542.91	0.475647
4543.91	0.475677
4544.91	0.475708
4545.91	0.475739
4546.91	0.475739
4547.91	0.475769
4548.91	0.4758
4549.91	0.47583
4550.91	0.47583
4551.91	0.47583
4552.91	0.475861
4553.91	0.475861
4554.91	0.475891
4555.91	0.475891
4556.91	0.475891
4557.91	0.475922
4558.91	0.475952
4559.91	0.475952
4560.91	0.476196
4561.91	0.476654
4562.91	0.477386
4563.91	0.477631
4564.91	0.477478
4565.91	0.477356
4566.91	0.477264
4567.91	0.477142
4568.91	0.47702
4569.91	0.476959
4570.91	0.476837
4571.91	0.476776
4572.91	0.476715
4573.91	0.476654
4574.91	0.476624
4575.91	0.4765625
4576.91	0.476532
4577.91	0.476501
4578.91	0.476501
4579.91	0.476471
4580.91	0.476471
4581.91	0.476471
4582.91	0.47644
4583.91	0.47644
4584.91	0.47644
4585.91	0.47644
4586.91	0.47641
4587.91	0.476379
4588.91	0.47641
4589.91	0.476379
4590.91	0.476379
4591.91	0.476379
4592.91	0.476379
4593.91	0.476379
4594.91	0.476349
4595.91	0.476349
4596.91	0.476349
4597.91	0.476379
4598.91	0.476379
4599.91	0.47641
4600.91	0.476105
4601.91	0.475494
4602.91	0.474823
4603.91	0.474243
4604.91	0.473938
4605.91	0.473938
4606.91	0.473969
4607.91	0.473755
4608.91	0.473907
4609.91	0.473999
4610.91	0.47406
4611.91	0.474121
4612.91	0.474182
4613.91	0.474091
4614.91	0.474213
4615.91	0.473755
4616.91	0.473938
4617.91	0.473999
4618.91	0.47406
4619.91	0.474121
4620.91	0.474152
4621.91	0.474182
4622.91	0.474213
4623.91	0.474213
4624.91	0.474243
4625.91	0.474243
4626.91	0.474243
4627.91	0.473419
4628.91	0.473663
4629.91	0.473755
4630.91	0.473785
4631.91	0.473816
4632.91	0.473877
4633.91	0.473907
4634.91	0.473938
4635.91	0.473938