File: Edgar/20240531/20240531/electrodeposition_pulsed_potential_20240531_B/OCP_1
Time (s)	WE(1).Potential (V)
2.15422	0.484741
3.15422	0.485046
4.15422	0.485321
5.15422	0.485596
6.15422	0.48584
7.15422	0.486115
8.15422	0.486359
9.15422	0.486603
10.1542	0.486877
11.1542	0.487122
12.1542	0.487366
13.1542	0.48761
14.1542	0.487823
15.1542	0.488098
16.1542	0.488373
17.1542	0.488617
18.1542	0.488861
19.1542	0.489136
20.1542	0.48938
21.1542	0.489655
22.1542	0.489899
23.1542	0.490112
24.1542	0.490387
25.1542	0.490601
26.1542	0.490814
27.1542	0.491089
28.1542	0.491302
29.1542	0.491516
30.1542	0.49176
31.1542	0.492004
32.1542	0.492249
33.1542	0.492462
34.1542	0.492676
35.1542	0.49292
36.1542	0.493164
37.1542	0.493408
38.1542	0.493683
39.1542	0.493958
40.1542	0.494202
41.1542	0.494476
42.1542	0.49469
43.1542	0.494873
44.1542	0.495056
45.1542	0.49527
46.1542	0.495453
47.1542	0.495636
48.1542	0.49588
49.1542	0.496063
50.1542	0.496246
51.1542	0.49646
52.1542	0.496643
53.1542	0.496857
54.1542	0.497101
55.1542	0.497314
56.1542	0.497528
57.1542	0.497742
58.1542	0.497955
59.1542	0.498138
60.1542	0.498322
61.1542	0.498535
62.1542	0.498718
63.1542	0.498932
64.1542	0.499268
65.1542	0.499573
66.1542	0.499878
67.1542	0.499878
68.1542	0.500183
69.1542	0.500183
70.1542	0.500488
71.1542	0.500793
72.1542	0.500793
73.1542	0.501099
74.1542	0.501099
75.1542	0.501404
76.1542	0.501709
77.1542	0.502014
78.1542	0.502014
79.1542	0.502319
80.1542	0.502319
81.1542	0.502625
82.1542	0.502625
83.1542	0.50293
84.1542	0.503235
85.1542	0.503235
86.1542	0.50354
87.1542	0.50354
88.1542	0.503845
89.1542	0.50415
90.1542	0.50415
91.1542	0.504456
92.1542	0.504456
93.1542	0.504761
94.1542	0.504761
95.1542	0.505066
96.1542	0.505371
97.1542	0.505371
98.1542	0.505676
99.1542	0.505676
100.154	0.505981
101.154	0.505981
102.154	0.506287
103.154	0.506287
104.154	0.506287
105.154	0.506592
106.154	0.506897
107.154	0.506897
108.154	0.507202
109.154	0.507202
110.154	0.507507
111.154	0.507507
112.154	0.5078125
113.154	0.5078125
114.154	0.508118
115.154	0.508423
116.154	0.508423
117.154	0.508728
118.154	0.508728
119.154	0.509033
120.154	0.509033
121.154	0.509338
122.154	0.509338
123.154	0.509644
124.154	0.509644
125.154	0.509949
126.154	0.509949
127.154	0.510254
128.154	0.510254
129.154	0.510559
130.154	0.510559
131.154	0.510864
132.154	0.510864
133.154	0.511169
134.154	0.511169
135.154	0.511475
136.154	0.511475
137.154	0.51178
138.154	0.51178
139.154	0.512085
140.154	0.512085
141.154	0.51239
142.154	0.51239
143.154	0.512695
144.154	0.512695
145.154	0.513
146.154	0.513
147.154	0.513306
148.154	0.513306
149.154	0.513306
150.154	0.513611
151.154	0.513611
152.154	0.513916
153.154	0.513916
154.154	0.514221
155.154	0.514221
156.154	0.514526
157.154	0.514526
158.154	0.514526
159.154	0.514832
160.154	0.514832
161.154	0.515137
162.154	0.515137
163.154	0.515442
164.154	0.515442
165.154	0.515747
166.154	0.515747
167.154	0.516052
168.154	0.516052
169.154	0.516357
170.154	0.516357
171.154	0.516663
172.154	0.516663
173.154	0.516663
174.154	0.516968
175.154	0.516968
176.154	0.517273
177.154	0.517273
178.154	0.517578
179.154	0.517578
180.154	0.517578
181.154	0.517883