File: Edgar/20240531/20240531/electrodeposition_pulsed_potential_20240531_B/pulses_5000_to_6000.txt
Time (s)	WE(1).Potential (V)	WE(1).Current (A)
3744.06	-0.698578	-0.0240967
3746.42	0.516388	0.0101593
3748.74	0.516907	4.20532e-05
3751.08	-0.697479	-0.0214417
3753.44	0.516479	0.00835266
3755.76	0.516876	3.92456e-05
3758.1	-0.698944	-0.019281
3760.46	0.516876	0.00544281
3762.78	0.517609	2.8595e-05
3765.12	-0.697998	-0.0174774
3767.48	0.516846	0.00100281
3769.8	0.518158	2.40784e-05
3772.16	0.000146484	0.00447754
3774.5	0.517273	0.000402832
3776.82	0.518036	2.11792e-05
3779.18	0.000650024	0.0037149
3781.52	0.517609	0.00020993
3783.84	0.517975	1.96228e-05
3786.2	1.2207e-05	0.00313629
3788.54	0.517151	0.000131287
3790.86	0.518097	1.81885e-05
3793.22	-0.00045166	0.00265564
3795.56	0.518127	8.74939e-05
3797.88	0.517365	1.97144e-05
3800.26	0.516418	0.0156006
3802.58	0.516815	7.34253e-05
3804.9	0.518066	1.50452e-05
3807.28	0.517273	0.0136139
3809.6	0.516968	5.87463e-05
3811.92	0.517487	1.70288e-05
3814.3	0.516327	0.011908
3816.62	0.517975	4.4281e-05
3818.96	-0.698395	-0.0242004
3821.32	0.516449	0.0102509
3823.64	0.517761	3.66821e-05
3825.98	-0.698242	-0.0214813
3828.34	0.516602	0.00846863
3830.66	0.516754	3.9093e-05
3833	-0.6987	-0.0193359
3835.36	0.51712	0.00576233
3837.68	0.51712	3.25623e-05
3840.02	-0.698883	-0.0175415
3842.38	0.516968	0.00110504
3844.7	0.516815	3.33862e-05
3847.06	-0.000497437	0.00441895
3849.4	0.517334	0.000437622
3851.72	0.517487	2.42615e-05
3854.08	-0.000540161	0.00367432
3856.42	0.517883	0.000223541
3858.74	0.516876	2.76184e-05
3861.1	-0.000299072	0.00309906
3863.44	0.51825	0.00013324
3865.76	0.51712	2.33459e-05
3868.12	0.00078125	0.00261505
3870.46	0.516968	9.91821e-05
3872.78	0.518127	1.55945e-05
3875.16	0.516785	0.0156189
3877.48	0.517639	6.90308e-05
3879.8	0.516998	2.05994e-05
3882.18	0.51709	0.0136444
3884.5	0.517303	5.82275e-05
3886.82	0.517212	1.87378e-05
3889.2	0.516418	0.0119354
3891.52	0.518097	4.29993e-05
3893.86	-0.697418	-0.0242218
3896.22	0.517242	0.0102936
3898.54	0.517517	4.04358e-05
3900.88	-0.698456	-0.0215118
3903.24	0.517487	0.0085144
3905.56	0.517059	3.75366e-05
3907.9	-0.697571	-0.0193817
3910.26	0.517975	0.00588776
3912.58	0.516815	3.67432e-05
3914.92	-0.698608	-0.0175964
3917.28	0.517883	0.00115875
3919.6	0.518097	2.4231e-05
3921.96	0.000576782	0.00435547
3924.3	0.516876	0.000465363
3926.62	0.516785	3.05786e-05
3928.98	0.000762939	0.00360901
3931.32	0.51709	0.00024057
3933.64	0.517487	2.39563e-05
3936	0.000817871	0.00303802
3938.34	0.5177	0.000142944
3940.66	0.518188	1.78528e-05
3943.02	0.000814819	0.00257233
3945.36	0.517242	0.000101135
3947.68	0.5177	1.77307e-05
3950.06	0.51651	0.0155975
3952.38	0.518158	6.91223e-05
3954.7	0.517914	1.74255e-05
3957.08	0.516266	0.0136505
3959.4	0.517853	5.56946e-05
3961.72	0.516876	2.18506e-05
3964.1	0.516876	0.0119476
3966.42	0.518066	4.47388e-05
3968.76	-0.697235	-0.0242493
3971.12	0.517181	0.0103271
3973.44	0.516754	4.49829e-05
3975.78	-0.697998	-0.0215668
3978.14	0.517181	0.00857849
3980.46	0.517822	3.302e-05
3982.8	-0.697876	-0.0194397
3985.16	0.517975	0.00607849
3987.48	0.517792	2.92053e-05
3989.82	-0.697693	-0.0176697
3992.18	0.517395	0.0012616
3994.5	0.516907	3.28674e-05
3996.86	-0.000448608	0.0042868
3999.2	0.517487	0.000495605
4001.52	0.517181	2.97852e-05
4003.88	0.0006073	0.00355499
4006.22	0.51828	0.000247681
4008.54	0.517029	2.64587e-05
4010.9	0.000234985	0.00299622
4013.24	0.517609	0.000151581
4015.56	0.517975	1.9928e-05
4017.92	-0.000302124	0.00254547
4020.26	0.518066	0.000100037
4022.58	0.517181	2.18811e-05
4024.96	0.516113	0.0155975
4027.28	0.517944	7.33337e-05
4029.6	0.518097	1.69067e-05
4031.98	0.517151	0.0136536
4034.3	0.516815	6.38123e-05
4036.62	0.516998	2.16675e-05
4039	0.516663	0.011969
4041.32	0.517029	5.18799e-05
4043.66	-0.697327	-0.0242798
4046.02	0.516602	0.0103638
4048.34	0.517639	3.91846e-05
4050.68	-0.697723	-0.0216125
4053.04	0.517059	0.00866089
4055.36	0.517975	3.21655e-05
4057.7	-0.69754	-0.0195068
4060.06	0.517151	0.00625916
4062.38	0.51709	3.48511e-05
4064.72	-0.698578	-0.017746
4067.08	0.516815	0.00138
4069.4	0.517334	3.04565e-05
4071.76	0.000637817	0.00420959
4074.1	0.517212	0.000533447
4076.42	0.517059	2.734375E-05
4078.78	0.000195313	0.00349487
4081.12	0.518158	0.000266571
4083.44	0.517853	2.19727e-05
4085.8	0.000445557	0.00294617
4088.14	0.517609	0.000159546
4090.46	0.517334	2.27966e-05
4092.82	0.000735474	0.00249634
4095.16	0.518158	0.00010376
4097.48	0.517914	1.71814e-05
4099.86	0.516541	0.0155762
4102.18	0.51709	8.12378e-05
4104.5	0.516754	2.5238e-05
4106.88	0.517548	0.0136566
4109.2	0.518036	5.83496e-05
4111.52	0.516815	2.29797e-05
4113.9	0.517242	0.0119904
4116.22	0.516968	5.31311e-05
4118.56	-0.697815	-0.0242889
4120.92	0.51712	0.0104004
4123.24	0.516754	4.6936e-05
4125.58	-0.697723	-0.0216492
4127.94	0.51651	0.00872192
4130.26	0.517944	3.40576e-05
4132.6	-0.698151	-0.0195587
4134.96	0.517517	0.00641724
4137.28	0.518188	2.86255e-05
4139.62	-0.698517	-0.0178101
4141.98	0.516846	0.00149536
4144.3	0.51709	3.2196e-05
4146.66	0.000653076	0.00414185
4149	0.516846	0.000572205
4151.32	0.517731	2.56348e-05
4153.68	0.000653076	0.00343414
4156.02	0.518036	0.000284149
4158.34	0.517456	2.35291e-05
4160.7	-0.000390625	0.00290314
4163.04	0.516876	0.000174011
4165.36	0.517487	1.9989e-05
4167.72	-0.000128174	0.00246216
4170.06	0.517242	0.000115265
4172.38	0.518097	1.62048e-05
4174.76	0.516083	0.0155701
4177.08	0.517273	8.21533e-05
4179.4	0.516907	2.27051e-05
4181.78	0.516113	0.0136597
4184.1	0.517181	6.59485e-05
4186.42	0.516998	2.16675e-05
4188.8	0.517517	0.0120087
4191.12	0.518097	4.73633e-05
4193.46	-0.697418	-0.0243011
4195.82	0.516327	0.0104431
4198.14	0.517151	4.46777e-05
4200.48	-0.697784	-0.0216766
4202.84	0.517181	0.00877686
4205.16	0.516998	4.07104e-05
4207.5	-0.698853	-0.0195892
4209.86	0.518036	0.00652466
4212.18	0.516815	3.82385e-05
4214.52	-0.698883	-0.0178558
4216.88	0.516846	0.00161377
4219.2	0.517212	3.22266e-05
4221.56	0.000189209	0.00407867
4223.9	0.518127	0.000605469
4226.22	0.517334	2.72522e-05
4228.58	0.000222778	0.00338196
4230.92	0.516998	0.00030957
4233.24	0.516876	2.90527e-05
4235.6	0.000732422	0.00284973
4237.94	0.516907	0.000185028
4240.26	0.5177	2.16675e-05
4242.62	0.000784302	0.00241791
4244.96	0.516998	0.000122406
4247.28	0.516998	2.48718e-05
4249.66	0.516602	0.0155487
4251.98	0.518005	8.18481e-05
4254.3	0.516907	2.41394e-05
4256.68	0.516632	0.0136719
4259	0.518097	6.13098e-05
4261.32	0.516907	2.28882e-05
4263.7	0.517639	0.0120239
4266.02	0.517731	5.09338e-05
4268.36	-0.698303	-0.0243195
4270.72	0.516541	0.0104767
4273.04	0.517761	4.42505e-05
4275.38	-0.698395	-0.0217072
4277.74	0.517303	0.00881958
4280.06	0.517761	3.75671e-05
4282.4	-0.69754	-0.0196472
4284.76	0.517944	0.00664856
4287.08	0.517975	3.06396e-05
4289.42	-0.698364	-0.0179047
4291.78	0.517761	0.00172272
4294.1	0.517731	2.85034e-05
4296.46	-0.000192261	0.00402802
4298.8	0.517853	0.000640564
4301.12	0.517609	2.75574e-05
4303.48	0.000817871	0.00332825
4305.82	0.51709	0.000326477
4308.14	0.517242	2.75269e-05
4310.5	0.000262451	0.00281219
4312.84	0.517609	0.000189331
4315.16	0.518127	1.91345e-05
4317.52	0.000152588	0.00238403
4319.86	0.517395	0.000125305
4322.18	0.516907	2.56958e-05
4324.56	0.517212	0.0155426
4326.88	0.518158	8.5083e-05
4329.2	0.517334	2.0874e-05
4331.58	0.516144	0.0136719
4333.9	0.516968	7.17468e-05
4336.22	0.51709	2.06909e-05
4338.6	0.517456	0.0120422
4340.92	0.518219	5.02625e-05
4343.26	-0.697479	-0.0243256
4345.62	0.516449	0.0105072
4347.94	0.518097	4.11682e-05
4350.28	-0.69812	-0.0217285
4352.64	0.517059	0.00887146
4354.96	0.517761	3.77197e-05
4357.3	-0.697449	-0.0196899
4359.66	0.516968	0.00675415
4361.98	0.516785	3.87268e-05
4364.32	-0.698944	-0.0179535
4366.68	0.51709	0.0018512
4369	0.51709	3.33862e-05
4371.36	-0.000469971	0.00396881
4373.7	0.518158	0.000674744
4376.02	0.517151	3.07007e-05
4378.38	0.00088501	0.00328064
4380.72	0.517822	0.000341095
4383.04	0.517609	2.56348e-05
4385.4	-0.000204468	0.00277313
4387.74	0.516754	0.000204926
4390.06	0.51712	2.55432e-05
4392.42	0.000823975	0.00234558
4394.76	0.517975	0.000126129
4397.08	0.517242	2.42004e-05
4399.46	0.51712	0.0155304
4401.78	0.517242	9.3811e-05
4404.1	0.517029	2.27966e-05
4406.48	0.516205	0.0136749
4408.8	0.516785	7.2937e-05
4411.12	0.516876	2.33765e-05
4413.5	0.517609	0.0120544
4415.82	0.51767	5.41687e-05
4418.16	-0.69751	-0.0243439
4420.52	0.517426	0.0105255
4422.84	0.517181	4.97437e-05
4425.18	-0.697388	-0.0217712
4427.54	0.517639	0.00891113
4429.86	0.516998	4.28162e-05
4432.2	-0.698822	-0.0197296
4434.56	0.517975	0.00683716
4436.88	0.517029	3.80249e-05
4439.22	-0.698792	-0.0180237
4441.58	0.517426	0.0019754
4443.9	0.517853	2.85645e-05
4444.02	0.516846	2.3468e-05