File: Edgar/20240531/20240531/electrodeposition_pulsed_potential_20240531_B/pulses_3000_to_4000.txt
Time (s)	WE(1).Potential (V)	WE(1).Current (A)
2319.03	-0.698669	-0.0234406
2321.39	0.517151	0.00838013
2323.71	0.518097	2.34375e-05
2326.05	-0.697601	-0.0201477
2328.41	0.517761	0.00284576
2330.73	0.517059	2.92053e-05
2333.07	-0.697571	-0.0175568
2335.43	0.517883	0.000356476
2337.75	0.517487	2.39258e-05
2340.09	-0.698334	-0.0155273
2342.45	0.518158	0.000154724
2344.77	0.517578	2.04468e-05
2347.13	0.000140381	0.00631073
2349.47	0.517914	9.80835e-05
2351.79	0.516754	2.46277e-05
2354.15	-0.000357056	0.00525208
2356.49	0.516602	7.90405e-05
2358.81	0.518127	1.49841e-05
2361.17	-0.000161743	0.00438385
2363.51	0.517151	6.08215e-05
2365.83	0.518158	1.28174e-05
2368.19	-0.000372314	0.00363892
2370.53	0.518127	4.54712e-05
2372.85	0.51825	1.16882e-05
2375.23	0.517242	0.0156982
2377.55	0.516998	4.52881e-05
2379.87	0.518158	1.01624e-05
2382.25	0.517029	0.0131531
2384.57	0.518127	3.23486e-05
2386.89	0.516968	1.58691e-05
2389.27	0.516296	0.0109344
2391.59	0.51767	2.99377e-05
2393.93	-0.697235	-0.023584
2396.29	0.516937	0.0086792
2398.61	0.51712	3.09448e-05
2400.95	-0.698883	-0.0202606
2403.31	0.516937	0.00448334
2405.63	0.51709	2.8656e-05
2407.97	-0.698486	-0.0176941
2410.33	0.516846	0.000426208
2412.65	0.516815	2.88391e-05
2414.99	-0.698639	-0.0156738
2417.35	0.518127	0.000171814
2419.67	0.517059	2.75879e-05
2422.03	0.000408936	0.00619385
2424.37	0.517853	0.00010437
2426.69	0.517517	2.01111e-05
2429.05	0.000769043	0.00515137
2431.39	0.517395	7.75757e-05
2433.71	0.51825	1.50452e-05
2436.07	0.000204468	0.00430847
2438.41	0.516876	6.42395e-05
2440.73	0.516876	2.2583e-05
2443.09	0.000183105	0.00358826
2445.43	0.516754	5.54504e-05
2447.75	0.518219	1.3092e-05
2450.13	0.516907	0.0157196
2452.45	0.516998	4.73328e-05
2454.77	0.517029	1.9165e-05
2457.15	0.517426	0.0132202
2459.47	0.517426	3.79944e-05
2461.79	0.517975	1.10168e-05
2464.17	0.517639	0.011026
2466.49	0.51712	3.67126e-05
2468.83	-0.698517	-0.0236359
2471.19	0.516449	0.00884094
2473.51	0.517334	2.92053e-05
2475.85	-0.698578	-0.0203552
2478.21	0.517731	0.00530731
2480.53	0.517334	3.03345e-05
2482.87	-0.699005	-0.0178131
2485.23	0.518311	0.000492554
2487.55	0.518188	1.94092e-05
2489.89	-0.697784	-0.0158112
2492.25	0.516846	0.0001987
2494.57	0.516846	2.6062e-05
2496.93	0.000466919	0.0060672
2499.27	0.517151	0.000116119
2501.59	0.51767	2.01416e-05
2503.95	0.000839233	0.0050528
2506.29	0.518188	7.6416e-05
2508.61	0.517181	2.05688e-05
2510.97	0.000708008	0.00422302
2513.31	0.517181	6.39038e-05
2515.63	0.517273	2.16064e-05
2517.99	0.000872803	0.00351837
2520.33	0.518127	4.64478e-05
2522.65	0.517181	1.79138e-05
2525.03	0.517059	0.0157349
2527.35	0.517365	4.38538e-05
2529.67	0.518097	1.32446e-05
2532.05	0.517487	0.0132629
2534.37	0.517517	3.83606e-05
2536.69	0.516876	1.94397e-05
2539.07	0.517609	0.0111176
2541.39	0.518188	3.10364e-05
2543.73	-0.698578	-0.0236877
2546.09	0.516449	0.00898132
2548.41	0.517151	3.33557e-05
2550.75	-0.698486	-0.0204498
2553.11	0.51709	0.00584473
2555.43	0.518127	2.3468e-05
2557.77	-0.698364	-0.0179443
2560.13	0.516907	0.0005896
2562.45	0.516907	2.82593e-05
2564.79	-0.699127	-0.0159332
2567.15	0.517212	0.000214264
2569.47	0.51709	2.3407e-05
2571.83	-0.000384521	0.00595398
2574.17	0.518158	0.000114441
2576.49	0.518066	1.77917e-05
2578.85	-0.000299072	0.00496307
2581.19	0.517853	8.0719e-05
2583.51	0.516998	2.22778e-05
2585.87	-0.000466919	0.00415375
2588.21	0.517609	6.43311e-05
2590.53	0.516815	2.21558e-05
2592.89	-3.35693e-05	0.00346161
2595.23	0.516876	5.75256e-05
2597.55	0.516754	2.30103e-05
2599.93	0.517456	0.0157288
2602.25	0.516754	5.10864e-05
2604.57	0.518158	1.13525e-05
2606.95	0.517487	0.0133087
2609.27	0.517914	3.66211e-05
2611.59	0.517883	1.33667e-05
2613.97	0.516296	0.0112183
2616.29	0.517487	3.34778e-05
2618.63	-0.697571	-0.0237488
2620.99	0.516449	0.00913086
2623.31	0.516785	3.64075e-05
2625.65	-0.698822	-0.0205475
2628.01	0.51767	0.00623566
2630.33	0.51825	2.35291e-05
2632.67	-0.698547	-0.0180756
2635.03	0.517181	0.000698242
2637.35	0.517151	2.82593e-05
2639.69	-0.698486	-0.0160736
2642.05	0.516815	0.000241577
2644.37	0.516998	2.74048e-05
2646.73	0.000646973	0.0058316
2649.07	0.51828	0.000125336
2651.39	0.51767	2.16064e-05
2653.75	-0.000308228	0.00486694
2656.09	0.516998	9.15833e-05
2658.41	0.517395	1.97754e-05
2660.77	0.00083313	0.00407074
2663.11	0.516846	7.17773e-05
2665.43	0.518127	1.474e-05
2667.79	-2.13623e-05	0.00339935
2670.13	0.517761	5.29785e-05
2672.45	0.516815	2.18811e-05
2674.83	0.516907	0.015744
2677.15	0.517426	4.88281e-05
2679.47	0.517944	1.19324e-05
2681.85	0.517395	0.0133453
2684.17	0.517944	3.68652e-05
2686.49	0.517334	1.80359e-05
2688.87	0.516937	0.0112854
2691.19	0.518127	3.04565e-05
2693.53	-0.697601	-0.0237915
2695.89	0.517761	0.00923767
2698.21	0.517456	3.06702e-05
2700.55	-0.697754	-0.0206299
2702.91	0.516632	0.00654724
2705.23	0.516876	3.08838e-05
2707.57	-0.698517	-0.0181732
2709.93	0.517426	0.000817566
2712.25	0.517731	2.54517e-05
2714.59	-0.698456	-0.0162048
2716.95	0.516937	0.000267365
2719.27	0.518158	1.91345e-05
2721.63	-0.000656128	0.00571747
2723.97	0.517456	0.000139557
2726.29	0.518036	1.71204e-05
2728.65	-0.000213623	0.00476624
2730.99	0.517853	8.87756e-05
2733.31	0.516754	2.5116e-05
2735.67	-0.000411987	0.00400238
2738.01	0.517365	6.82068e-05
2740.33	0.517731	1.69983e-05
2742.69	-0.000524902	0.00334656
2745.03	0.516876	5.95703e-05
2747.35	0.516937	2.15454e-05
2749.73	0.516785	0.0157349
2752.05	0.518188	4.19617e-05
2754.37	0.518311	1.10474e-05
2756.75	0.516266	0.0133881
2759.07	0.516815	4.57153e-05
2761.39	0.516846	2.14539e-05
2763.77	0.516815	0.0113525
2766.09	0.518158	3.10974e-05
2768.43	-0.697357	-0.0238403
2770.79	0.516724	0.00935059
2773.11	0.517914	3.04565e-05
2775.45	-0.698029	-0.0207245
2777.81	0.516907	0.00680542
2780.13	0.516876	3.18298e-05
2782.47	-0.698975	-0.0182739
2784.83	0.516876	0.000968628
2787.15	0.517578	2.63672e-05
2789.49	-0.698425	-0.0163177
2791.85	0.517151	0.000296265
2794.17	0.516937	2.82593e-05
2796.53	0.000476074	0.00560333
2798.87	0.517426	0.000149933
2801.19	0.516937	2.63367e-05
2803.55	0.000222778	0.00467682
2805.89	0.517059	0.000101715
2808.21	0.518066	1.66931e-05
2810.57	0.00032959	0.00391785
2812.91	0.517303	7.36084e-05
2815.23	0.516846	2.4231e-05
2817.59	0.000732422	0.00328186
2819.93	0.516876	6.23474e-05
2822.25	0.517273	1.95923e-05
2824.63	0.516724	0.0157349
2826.95	0.517609	4.46472e-05
2829.27	0.518127	1.27869e-05
2831.65	0.516876	0.0134277
2833.97	0.517395	4.27856e-05
2836.29	0.518005	1.14136e-05
2838.67	0.51709	0.0114197
2840.99	0.516846	3.9917e-05
2843.33	-0.697754	-0.0238159
2845.69	0.517395	0.00943909
2848.01	0.51709	3.42407e-05
2850.35	-0.697754	-0.020752
2852.71	0.517029	0.0069397
2855.03	0.516907	3.39355e-05
2857.37	-0.69873	-0.018338
2859.73	0.516968	0.0010675
2862.05	0.517883	2.33765e-05
2864.39	-0.698975	-0.0163971
2866.75	0.518158	0.000313904
2869.07	0.516815	2.92053e-05
2871.43	-0.00032959	0.00553192
2873.77	0.517578	0.000156281
2876.09	0.518036	1.87378e-05
2878.45	0.000524902	0.004609375
2880.79	0.517883	0.00010022
2883.11	0.516937	2.4231e-05
2885.47	0.000292969	0.00387421
2887.81	0.516815	7.76062e-05
2890.13	0.516876	2.46887e-05
2892.49	0.000726318	0.00324402
2894.83	0.517944	5.4718e-05
2897.15	0.517761	1.59912e-05
2899.53	0.516998	0.0157349
2901.85	0.517914	4.61121e-05
2904.17	0.518097	1.33972e-05
2906.55	0.516968	0.0134521
2908.87	0.516907	4.52881e-05
2911.19	0.518158	1.05896e-05
2913.57	0.517578	0.0114807
2915.89	0.516846	4.13208e-05
2918.23	-0.698334	-0.0238647
2920.59	0.517578	0.00953369
2922.91	0.517151	3.50342e-05
2925.25	-0.697754	-0.0208313
2927.61	0.516907	0.00713348
2929.93	0.517395	3.02429e-05
2932.27	-0.698486	-0.0184357
2934.63	0.517639	0.00122833
2936.95	0.517487	2.4231e-05
2939.29	-0.697784	-0.0165009
2941.65	0.517578	0.000352386
2943.97	0.517181	2.78931e-05
2946.33	0.00045166	0.00541748
2948.67	0.518188	0.000164001
2950.99	0.517944	2.02026e-05
2953.35	0.000497437	0.00452576
2955.69	0.517975	0.000102875
2958.01	0.517761	1.69983e-05
2960.37	0.000372314	0.00380402
2962.71	0.517426	7.75757e-05
2965.03	0.518097	1.5686e-05
2967.39	-0.000204468	0.00319855
2969.73	0.516815	6.39648e-05
2972.05	0.517212	1.953125E-05
2974.43	0.517273	0.015744
2976.75	0.517334	5.22766e-05
2979.07	0.518097	1.40381e-05
2981.45	0.517487	0.0134979
2983.77	0.516876	4.63257e-05
2986.09	0.516937	1.98975e-05
2988.47	0.516327	0.0115448
2990.79	0.51712	3.97034e-05
2993.13	-0.697815	-0.0239197
2995.49	0.51767	0.00962219
2997.81	0.517273	3.57056e-05
3000.15	-0.69809	-0.0209167
3002.51	0.517731	0.00731812
3004.83	0.518097	2.56042e-05
3007.17	-0.699066	-0.0185547
3009.53	0.51712	0.00145813
3011.85	0.516907	3.10059e-05
3014.19	-0.698242	-0.016629
3016.55	0.517242	0.00038974
3018.87	0.516724	2.96936e-05
3018.99	0.517273	1.78528e-05