File: Edgar/20240531/20240531/electrodeposition_pulsed_potential_20240531_B/pulses_2000_to_3000.txt
Time (s)	WE(1).Potential (V)	WE(1).Current (A)
1606.64	-0.698456	-0.0223755
1609	0.518097	0.00110321
1611.32	0.518097	2.01111e-05
1613.66	-0.698334	-0.0184021
1616.02	0.517303	0.000246033
1618.34	0.517517	2.21863e-05
1620.68	-0.699188	-0.0155701
1623.04	0.518188	0.000123383
1625.36	0.517151	2.14844e-05
1627.7	-0.697815	-0.0134979
1630.06	0.516876	9.04236e-05
1632.38	0.518188	1.27563e-05
1634.74	-0.000341797	0.00777588
1637.08	0.518188	6.11267e-05
1639.4	0.51825	1.16882e-05
1641.76	-0.000622559	0.00632019
1644.1	0.516754	5.76782e-05
1646.42	0.516754	2.03247e-05
1648.78	0.000930786	0.00514191
1651.12	0.517456	4.37927e-05
1653.44	0.517975	9.30786e-06
1655.8	-0.000598145	0.00416077
1658.14	0.517487	3.68042e-05
1660.46	0.517822	1.16577e-05
1662.84	0.517212	0.0151978
1665.16	0.517242	3.58276e-05
1667.48	0.516968	1.64795e-05
1669.86	0.517426	0.0120667
1672.18	0.518127	2.64282e-05
1674.5	0.518341	6.19507e-06
1676.88	0.517822	0.00921021
1679.2	0.517914	2.11182e-05
1681.54	-0.697693	-0.022583
1683.9	0.517395	0.00313141
1686.22	0.517273	2.55432e-05
1688.56	-0.698303	-0.0186554
1690.92	0.518127	0.000284851
1693.24	0.516876	2.62451e-05
1695.58	-0.697784	-0.0158356
1697.94	0.516846	0.000146179
1700.26	0.517303	1.94092e-05
1702.6	-0.69928	-0.0137451
1704.96	0.517792	9.08813e-05
1707.28	0.5177	1.66016e-05
1709.64	-0.000814819	0.00759888
1711.98	0.518127	6.51855e-05
1714.3	0.517365	1.59912e-05
1716.66	-0.000567627	0.00621124
1719	0.517609	5.50232e-05
1721.32	0.51712	1.88293e-05
1723.68	0.000823975	0.00507263
1726.02	0.518219	4.26331e-05
1728.34	0.517395	1.71814e-05
1730.7	0.000515747	0.00412109
1733.04	0.517883	3.48511e-05
1735.36	0.517151	1.62659e-05
1737.74	0.517487	0.0152985
1740.06	0.518219	2.9541e-05
1742.38	0.517517	1.32446e-05
1744.76	0.517151	0.0122681
1747.08	0.518188	2.47803e-05
1749.4	0.516785	1.64795e-05
1751.78	0.516296	0.00951538
1754.1	0.517059	3.09448e-05
1756.44	-0.697754	-0.0227081
1758.8	0.516693	0.00540253
1761.12	0.517578	2.37427e-05
1763.46	-0.698456	-0.0188599
1765.82	0.516815	0.00035141
1768.14	0.517548	2.18201e-05
1770.48	-0.697693	-0.0160767
1772.84	0.517517	0.000154388
1775.16	0.518097	1.72119e-05
1777.5	-0.698303	-0.0139954
1779.86	0.517761	9.66492e-05
1782.18	0.518311	1.3916e-05
1784.54	0.000653076	0.00741791
1786.88	0.51712	7.38831e-05
1789.2	0.518188	1.30615e-05
1791.56	0.000546265	0.00607605
1793.9	0.517151	6.00891e-05
1796.22	0.517609	1.40991e-05
1798.58	-0.000494385	0.00499695
1800.92	0.518188	4.36096e-05
1803.24	0.517609	1.40076e-05
1805.6	0.000125122	0.00406586
1807.94	0.516724	4.44946e-05
1810.26	0.516907	1.86462e-05
1812.64	0.517456	0.0153778
1814.96	0.517426	3.75366e-05
1817.28	0.516846	1.80054e-05
1819.66	0.516663	0.0124115
1821.98	0.517548	3.1311e-05
1824.3	0.517792	9.70459e-06
1826.68	0.517242	0.00977173
1829	0.517395	2.90833e-05
1831.34	-0.698639	-0.0228546
1833.7	0.518188	0.00631378
1836.02	0.516785	2.99072e-05
1838.36	-0.697998	-0.019101
1840.72	0.517059	0.000420441
1843.04	0.518127	1.73645e-05
1845.38	-0.698212	-0.0163269
1847.74	0.516968	0.000172638
1850.06	0.516785	2.56653e-05
1852.4	-0.697998	-0.0142578
1854.76	0.517731	0.000102905
1857.08	0.516785	2.41699e-05
1859.44	0.000765991	0.0072467
1861.78	0.516876	8.04138e-05
1864.1	0.518036	1.3855e-05
1866.46	9.15527e-05	0.00596619
1868.8	0.517853	5.70984e-05
1871.12	0.517548	1.78833e-05
1873.48	-0.0003479	0.00491394
1875.82	0.51825	4.49829e-05
1878.14	0.51709	1.72119e-05
1880.5	0.000784302	0.00400757
1882.84	0.518127	3.65601e-05
1885.16	0.516937	1.8158e-05
1887.54	0.516571	0.0154602
1889.86	0.516907	4.12292e-05
1892.18	0.517151	1.44958e-05
1894.56	0.517578	0.0125641
1896.88	0.516876	3.76282e-05
1899.2	0.516815	1.58691e-05
1901.58	0.517731	0.0099884
1903.9	0.516876	3.27148e-05
1906.24	-0.6987	-0.0229797
1908.6	0.517365	0.00689362
1910.92	0.51767	2.49634e-05
1913.26	-0.698853	-0.0192932
1915.62	0.517853	0.000520325
1917.94	0.516724	2.75574e-05
1920.28	-0.698883	-0.0165466
1922.64	0.517822	0.000182587
1924.96	0.517151	2.39258e-05
1927.3	-0.697845	-0.0144775
1929.66	0.516815	0.000115265
1931.98	0.518005	1.60522e-05
1934.34	-0.00067749	0.00709534
1936.68	0.517029	8.24585e-05
1939	0.516846	2.20642e-05
1941.36	-0.000405884	0.00584778
1943.7	0.518219	5.73425e-05
1946.02	0.516785	2.27661e-05
1948.38	-1.83105e-05	0.0048288
1950.72	0.516937	5.40161e-05
1953.04	0.51828	9.94873e-06
1955.4	0.000262451	0.00395599
1957.74	0.518341	3.95508e-05
1960.06	0.516724	1.96533e-05
1962.44	0.516418	0.0155273
1964.76	0.517639	3.57056e-05
1967.08	0.516907	1.73035e-05
1969.46	0.517609	0.0126831
1971.78	0.518188	2.81982e-05
1974.1	0.518036	9.39941e-06
1976.48	0.51651	0.0101959
1978.8	0.517792	2.72522e-05
1981.14	-0.697388	-0.0230988
1983.5	0.51709	0.0073288
1985.82	0.51712	2.8595e-05
1988.16	-0.697632	-0.0194794
1990.52	0.517181	0.000675049
1992.84	0.518311	1.80664e-05
1995.18	-0.698364	-0.0167664
1997.54	0.516937	0.000210327
1999.86	0.51712	2.33459e-05
2002.2	-0.698425	-0.0147125
2004.56	0.517609	0.000114899
2006.88	0.518188	1.5625e-05
2009.24	-0.00010376	0.00694733
2011.58	0.516846	8.69751e-05
2013.9	0.516968	2.23694e-05
2016.26	0.000463867	0.00574158
2018.6	0.5177	6.53381e-05
2020.92	0.517059	1.9104e-05
2023.28	0.000775146	0.00474884
2025.62	0.517975	4.7699e-05
2027.94	0.516876	2.12402e-05
2030.3	0.000915527	0.00390533
2032.64	0.518188	3.98865e-05
2034.96	0.517792	1.08948e-05
2037.34	0.516388	0.0155792
2039.66	0.516968	3.86963e-05
2041.98	0.517303	1.5686e-05
2044.36	0.516113	0.0128113
2046.68	0.517548	3.30811e-05
2049	0.5177	1.14746e-05
2051.38	0.5177	0.0103638
2053.7	0.518219	2.56958e-05
2056.04	-0.698029	-0.0232239
2058.4	0.517456	0.00766296
2060.72	0.517456	2.53906e-05
2063.06	-0.69809	-0.0196808
2065.42	0.518127	0.000855713
2067.74	0.517944	2.21252e-05
2070.08	-0.699005	-0.0169861
2072.44	0.5177	0.000224213
2074.76	0.516785	2.47803e-05
2077.1	-0.697845	-0.0149353
2079.46	0.518127	0.000116089
2081.78	0.516876	2.50549e-05
2084.14	-0.000210571	0.00680237
2086.48	0.516876	8.91113e-05
2088.8	0.516937	2.32849e-05
2091.16	0.000546265	0.00563721
2093.5	0.517639	6.35376e-05
2095.82	0.518158	1.18103e-05
2098.18	-0.000506592	0.00468323
2100.52	0.516724	5.8136e-05
2102.84	0.517151	1.88904e-05
2105.2	0.000808716	0.00385162
2107.54	0.517334	4.46777e-05
2109.86	0.517456	1.3031e-05
2112.24	0.517639	0.0156403
2114.56	0.518188	3.53394e-05
2116.88	0.517761	1.26648e-05
2119.26	0.517487	0.0129028
2121.58	0.517975	3.13416e-05
2123.9	0.517303	1.3916e-05
2126.28	0.517517	0.0105225
2128.6	0.517517	3.10364e-05
2130.94	-0.697357	-0.0233368
2133.3	0.516968	0.00796814
2135.62	0.517365	2.8595e-05
2137.96	-0.698395	-0.0198212
2140.32	0.517731	0.00118378
2142.64	0.518188	1.953125E-05
2144.98	-0.699127	-0.01716
2147.34	0.517181	0.000257904
2149.66	0.516846	2.64282e-05
2152	-0.698517	-0.0151154
2154.36	0.517395	0.000132782
2156.68	0.518188	1.55029e-05
2159.04	-0.000598145	0.006651
2161.38	0.516937	9.15527e-05
2163.7	0.517761	1.74866e-05
2166.06	-0.000613403	0.00551575
2168.4	0.517517	6.77795e-05
2170.72	0.517303	1.94397e-05
2173.08	-0.000494385	0.00458954
2175.42	0.518311	5.07507e-05
2177.74	0.517029	2.13013e-05
2180.1	-0.000189209	0.00378906
2182.44	0.517395	4.55017e-05
2184.76	0.518097	1.11389e-05
2187.14	0.516724	0.0156616
2189.46	0.517914	3.68042e-05
2191.78	0.517853	1.13831e-05
2194.16	0.517151	0.0129822
2196.48	0.518036	3.11279e-05
2198.8	0.516937	1.67542e-05
2201.18	0.516968	0.0106598
2203.5	0.516907	3.42102e-05
2205.84	-0.698608	-0.0234161
2208.2	0.517914	0.00820923
2210.52	0.51828	2.16064e-05
2212.86	-0.697571	-0.0199707
2215.22	0.518158	0.00171448
2217.54	0.516937	2.9541e-05
2219.88	-0.697693	-0.0173462
2222.24	0.516876	0.000299408
2224.56	0.518188	1.97144e-05
2226.9	-0.69812	-0.0152985
2229.26	0.517853	0.000139008
2231.58	0.516937	2.45361e-05
2233.94	0.000753784	0.00651062
2236.28	0.517761	9.2804e-05
2238.6	0.516693	2.38647e-05
2240.96	0.000286865	0.00540558
2243.3	0.516815	7.52563e-05
2245.62	0.517029	2.07214e-05
2247.98	-0.000100708	0.00450745
2250.32	0.516815	6.09131e-05
2252.64	0.517883	1.33057e-05
2255	-0.000146484	0.00373108
2257.34	0.51767	4.65698e-05
2259.66	0.518127	1.18103e-05
2262.04	0.516052	0.0156952
2264.36	0.517456	3.94592e-05
2266.68	0.516907	1.89209e-05
2269.06	0.51709	0.0130707
2271.38	0.516846	4.15649e-05
2273.7	0.516785	1.90735e-05
2276.08	0.516632	0.0107971
2278.4	0.518097	2.82898e-05
2280.74	-0.697327	-0.0234955
2283.1	0.516449	0.00842896
2285.42	0.517181	3.12805e-05
2287.76	-0.698944	-0.0200928
2290.12	0.518158	0.00272614
2292.44	0.516907	2.93884e-05
2294.78	-0.698334	-0.0174896
2297.14	0.516815	0.00034671
2299.46	0.517181	2.62451e-05
2301.8	-0.698547	-0.0154541
2304.16	0.518341	0.000149536
2306.48	0.516693	2.69165e-05
2306.6	0.516815	1.828e-05