File: Edgar/20240531/20240531/electrodeposition_pulsed_potential_20240531_B/pulses_0_to_1000.txt
Time (s)	WE(1).Potential (V)	WE(1).Current (A)
181.812	-0.698639	-0.00304138
184.172	0.517639	1.28174e-05
186.492	0.516754	8.48389e-06
188.832	-0.699951	-0.0028064
191.192	0.516815	2.771e-05
193.512	0.516724	1.25427e-05
195.852	-0.69986	-0.00333435
198.212	0.51709	2.9541e-05
200.532	0.51709	1.24817e-05
202.872	-0.699585	-0.00376801
205.232	0.518127	1.24207e-05
207.552	0.517731	6.31714e-06
209.912	-7.32422e-05	0.00307343
212.252	0.516876	1.61743e-05
214.572	0.518188	-5.79834e-07
216.932	0.000189209	0.000579834
219.272	0.518005	4.69971e-06
221.592	0.517212	3.9978e-06
223.952	7.32422e-05	0.00015271
226.292	0.516907	1.05896e-05
228.612	0.518005	-2.10571e-06
230.972	0.000753784	1.9989e-05
233.312	0.516815	8.5144e-06
235.632	0.517181	2.34985e-06
238.012	0.518372	0.000172546
240.332	0.518341	-1.09863e-06
242.652	0.517181	4.3335e-06
245.032	0.516693	6.53076e-05
247.352	0.51712	4.27246e-06
249.672	0.518005	-3.05176e-06
252.052	0.517731	3.01208e-05
254.372	0.517944	-1.2207e-06
256.712	-0.699585	-0.0108551
259.072	0.516846	2.41089e-05
261.392	0.516998	4.48608e-06
263.732	-0.698273	-0.00761108
266.092	0.517914	1.01318e-05
268.412	0.518219	-4.39453e-06
270.752	-0.699219	-0.00617615
273.112	0.517334	8.39233e-06
275.432	0.516724	4.11987e-06
277.772	-0.698761	-0.00540985
280.132	0.516724	1.17798e-05
282.452	0.518188	-4.11987e-06
284.812	0.00057373	0.00892639
287.152	0.516785	1.08643e-05
289.472	0.51825	-3.08228e-06
291.832	-0.000360107	0.00492859
294.172	0.516998	7.35474e-06
296.492	0.517731	-1.58691e-06
298.852	0.00100708	0.00228363
301.192	0.517487	3.78418e-06
303.512	0.518036	-3.9978e-06
305.872	0.000933838	0.000932007
308.212	0.516815	4.45557e-06
310.532	0.517273	-2.44141e-07
312.912	0.518311	0.000631714
315.232	0.517883	-2.2583e-06
317.552	0.516754	4.15039e-06
319.932	0.517151	0.000135559
322.252	0.516815	7.8125e-06
324.572	0.516724	4.5166e-06
326.952	0.517273	5.87463e-05
329.272	0.517975	-2.01416e-06
331.612	-0.699066	-0.0134552
333.972	0.518158	2.67944e-05
336.292	0.518219	-3.02124e-06
338.632	-0.69812	-0.00950623
340.992	0.518219	1.36108e-05
343.312	0.518097	-1.98364e-06
345.652	-0.698212	-0.00747192
348.012	0.517853	1.17493e-05
350.332	0.517731	-4.57764e-07
352.672	-0.699493	-0.00631714
355.032	0.516998	1.41296e-05
357.352	0.518188	-3.23486e-06
359.712	0.000259399	0.00968628
362.052	0.518219	3.44849e-06
364.372	0.517731	-2.22778e-06
366.732	-0.000305176	0.00613556
369.072	0.516998	9.42993e-06
371.392	0.517944	-2.44141e-06
373.752	0.000302124	0.00358765
376.092	0.51825	-1.31226e-06
378.412	0.517181	4.85229e-06
380.772	-0.000326538	0.00184357
383.112	0.517212	6.40869e-06
385.432	0.518036	-3.32642e-06
387.812	0.517731	0.00170471
390.132	0.517334	5.61523e-06
392.452	0.516937	4.63867e-06
394.832	0.516846	0.000204865
397.152	0.51709	4.88281e-06
399.472	0.517456	1.67847e-06
401.852	0.517975	7.32727e-05
404.172	0.518066	-1.06812e-06
406.512	-0.69812	-0.0148529
408.872	0.51709	4.28772e-05
411.192	0.518097	-2.16675e-06
413.532	-0.699493	-0.0106628
415.892	0.517609	2.57568e-05
418.212	0.517212	5.98145e-06
420.552	-0.698273	-0.00837402
422.912	0.516876	2.04773e-05
425.232	0.516998	4.73022e-06
427.572	-0.698853	-0.0070166
429.932	0.516815	1.7334e-05
432.252	0.517395	8.23975e-07
434.612	0.000271606	0.00993042
436.952	0.518127	7.01904e-06
439.272	0.518219	-2.74658e-06
441.632	0.000140381	0.00663971
443.972	0.518127	5.67627e-06
446.292	0.516907	5.85937e-06
448.652	-0.00020752	0.00427643
450.992	0.5177	5.7373e-06
453.312	0.517334	3.66211e-07
455.672	0.000863647	0.0024881
458.012	0.518036	2.89917e-06
460.332	0.518097	-2.47192e-06
462.712	0.518066	0.00641571
465.032	0.516876	1.02844e-05
467.352	0.516907	5.5542e-06
469.732	0.518158	0.000279205
472.052	0.516846	7.44629e-06
474.372	0.516876	5.40161e-06
476.752	0.51825	9.53674e-05
479.072	0.51825	-1.00708e-06
481.412	-0.699249	-0.0159149
483.772	0.516785	5.42908e-05
486.092	0.516846	6.65283e-06
488.432	-0.698883	-0.011615
490.792	0.516815	3.74756e-05
493.112	0.517853	1.12915e-06
495.452	-0.699188	-0.00914612
497.812	0.517212	2.59705e-05
500.132	0.517975	-1.00708e-06
502.472	-0.698334	-0.0076355
504.833	0.518097	1.33972e-05
507.153	0.516968	6.86646e-06
509.513	-0.000646973	0.0100128
511.853	0.516937	1.83105e-05
514.173	0.51828	-2.01416e-06
516.533	5.49316e-05	0.00693787
518.873	0.516815	1.59607e-05
521.193	0.517212	3.02124e-06
523.553	5.79834e-05	0.00470581
525.893	0.517761	9.58252e-06
528.213	0.517639	2.44141e-06
530.573	0.000939941	0.00295959
532.913	0.518158	3.60107e-06
535.233	0.517944	-5.79834e-07
537.613	0.518005	0.00866699
539.933	0.517609	6.5918e-06
542.253	0.517212	2.71606e-06
544.633	0.517303	0.000417908
546.953	0.517609	2.2583e-06
549.273	0.517059	3.8147e-06
551.653	0.51828	0.000124664
553.973	0.517975	3.20435e-06
556.313	-0.698761	-0.016803
558.673	0.517242	6.32324e-05
560.993	0.516815	9.94873e-06
563.333	-0.698578	-0.0123901
565.693	0.517548	3.91541e-05
568.013	0.518036	-1.83105e-07
570.353	-0.698151	-0.0098114
572.713	0.518402	2.37122e-05
575.033	0.516693	7.90405e-06
577.373	-0.699524	-0.0081665
579.733	0.516907	2.4292e-05
582.053	0.517548	3.38745e-06
584.413	-0.000674438	0.0100128
586.753	0.517914	1.53503e-05
589.073	0.517151	5.79834e-06
591.433	0.000643921	0.00711426
593.773	0.517151	1.6449e-05
596.093	0.518188	-1.19019e-06
598.453	0.000869751	0.00499359
600.793	0.518341	8.36182e-06
603.113	0.516724	7.90405e-06
605.473	-0.000241089	0.0033252
607.813	0.518219	6.37817e-06
610.133	0.516876	6.5918e-06
612.513	0.516815	0.00994873
614.833	0.516846	1.34583e-05
617.153	0.516907	7.1106e-06
619.533	0.516876	0.000617981
621.853	0.516937	1.27869e-05
624.173	0.518097	-2.22778e-06
626.553	0.51709	0.000164642
628.873	0.517334	6.74438e-06
631.213	-0.697906	-0.0175751
633.573	0.516937	8.13904e-05
635.893	0.517944	3.479e-06
638.233	-0.698639	-0.013092
640.593	0.516998	4.94385e-05
642.913	0.516876	9.79614e-06
645.253	-0.698151	-0.010434
647.613	0.517334	3.51868e-05
649.933	0.518036	1.15967e-06
652.273	-0.698395	-0.00869446
654.633	0.517395	2.44141e-05
656.953	0.516968	1.02844e-05
659.313	-0.000796509	0.00994873
661.653	0.517578	2.00806e-05
663.973	0.517578	4.05884e-06
666.333	0.000238037	0.0072113
668.673	0.51825	1.33057e-05
670.993	0.516968	8.02612e-06
673.353	-0.000131226	0.00519592
675.693	0.517029	1.69678e-05
678.013	0.517761	2.86865e-06
680.373	0.000964355	0.0035849
682.713	0.517059	1.54114e-05
685.033	0.516937	6.71387e-06
687.413	0.516907	0.0108948
689.733	0.516937	1.66626e-05
692.053	0.518219	-8.54492e-07
694.433	0.517761	0.00098114
696.753	0.517853	6.22559e-06
699.073	0.517914	1.43433e-06
701.453	0.51709	0.000210236
703.773	0.517181	1.27563e-05
706.113	-0.699005	-0.0182159
708.473	0.516815	9.97925e-05
710.793	0.518188	2.96021e-06
713.133	-0.698181	-0.0136993
715.493	0.51709	5.99365e-05
717.813	0.517731	6.19507e-06
720.153	-0.698761	-0.0109741
722.513	0.518188	3.45154e-05
724.833	0.517334	8.39233e-06
727.173	-0.6987	-0.00915222
729.533	0.517303	3.37524e-05
731.853	0.518005	1.06812e-06
734.213	-0.00083313	0.00984497
736.553	0.517914	2.18811e-05
738.873	0.517334	6.22559e-06
741.233	0.000738525	0.00725403
743.573	0.517059	2.46582e-05
745.893	0.518097	0
748.253	0.000137329	0.00532776
750.593	0.516846	2.20032e-05
752.913	0.51828	-3.66211e-07
755.273	0.000326538	0.00378326
757.613	0.51712	1.86768e-05
759.933	0.518158	2.44141e-07
762.313	0.516266	0.0116302
764.633	0.518066	9.52148e-06
766.953	0.517944	1.25122e-06
769.333	0.517426	0.00196594
771.653	0.517792	1.11084e-05
773.973	0.516815	8.75854e-06
776.353	0.517456	0.00026236
778.673	0.518188	6.7749e-06
781.013	-0.698975	-0.0188141
783.373	0.516968	0.000117737
785.693	0.516876	1.48926e-05
788.033	-0.698639	-0.0142303
790.393	0.518066	6.29272e-05
792.713	0.517639	6.86646e-06
795.053	-0.69812	-0.011499
797.413	0.517303	4.66614e-05
799.733	0.517242	9.82666e-06
802.073	-0.698242	-0.00960083
804.433	0.518372	3.125E-05
806.753	0.516754	1.37939e-05
809.113	-0.000671387	0.009729
811.453	0.517761	2.67334e-05
813.773	0.516815	1.15662e-05
816.133	0.000299072	0.00726532
818.473	0.516876	2.8595e-05
820.793	0.517914	4.60815e-06
823.153	-0.00045166	0.00543396
825.493	0.517426	2.02026e-05
827.813	0.517212	6.68335e-06
830.173	-0.000125122	0.0039502
832.513	0.51767	1.77917e-05
834.833	0.518188	6.40869e-07
837.213	0.5177	0.0122559
839.533	0.51767	1.40381e-05
841.853	0.516998	7.41577e-06
844.233	0.518066	0.00608063
846.553	0.516968	1.72729e-05
848.873	0.518097	6.71387e-07
851.253	0.516876	0.000334137
853.573	0.517975	8.5144e-06
855.913	-0.699005	-0.0193573
858.273	0.517029	0.000133423
860.593	0.518005	9.15527e-06
862.933	-0.699249	-0.0147461
865.293	0.516876	7.91321e-05
867.614	0.518311	6.16455e-06
869.954	-0.698364	-0.0119781
872.314	0.51767	5.35889e-05
874.634	0.517731	5.58472e-06
876.974	-0.698761	-0.010022
879.334	0.518188	3.54614e-05
881.654	0.517395	8.91113e-06
881.774	0.516754	1.03149e-05