File: Edgar/20240531/20240531/electrodeposition_pulsed_potential_20240531_B/pulses_4000_to_5000.txt
Time (s)	WE(1).Potential (V)	WE(1).Current (A)
3031.58	-0.698608	-0.0238281
3033.94	0.517639	0.00957947
3036.26	0.51712	3.37524e-05
3038.6	-0.698761	-0.0209259
3040.96	0.516663	0.00730164
3043.28	0.516907	3.34473e-05
3045.62	-0.697968	-0.0185852
3047.98	0.516785	0.00146515
3050.3	0.518188	2.22778e-05
3052.64	-0.698883	-0.0166656
3055	0.517517	0.000399994
3057.32	0.517151	2.61841e-05
3059.68	-0.000518799	0.00528107
3062.02	0.51709	0.000189392
3064.34	0.51709	2.61536e-05
3066.7	-0.000454712	0.00440399
3069.04	0.516968	0.000117767
3071.36	0.516907	2.48718e-05
3073.72	-0.000149536	0.00369904
3076.06	0.518036	7.71484e-05
3078.38	0.518005	1.74255e-05
3080.74	0.000640869	0.00310944
3083.08	0.518158	5.77698e-05
3085.4	0.516876	2.11487e-05
3087.78	0.516724	0.0157288
3090.1	0.51825	4.68445e-05
3092.42	0.516998	2.03247e-05
3094.8	0.516541	0.0135254
3097.12	0.517609	4.27856e-05
3099.44	0.516998	2.14233e-05
3101.82	0.516998	0.0115997
3104.14	0.517181	3.9093e-05
3106.48	-0.697449	-0.0239594
3108.84	0.516449	0.009729
3111.16	0.517334	3.53394e-05
3113.5	-0.69873	-0.0210083
3115.86	0.516846	0.00752869
3118.18	0.517456	3.08838e-05
3120.52	-0.698364	-0.0186829
3122.88	0.516876	0.00179138
3125.2	0.518097	2.46277e-05
3127.54	-0.698547	-0.0167694
3129.9	0.516754	0.000453613
3132.22	0.517426	2.57874e-05
3134.58	0.00045166	0.0051889
3136.92	0.518066	0.000199646
3139.24	0.517822	2.20947e-05
3141.6	0.00078125	0.00432709
3143.94	0.517822	0.000116791
3146.26	0.516815	2.55432e-05
3148.62	-0.00043335	0.00364838
3150.96	0.516693	8.88977e-05
3153.28	0.517517	2.05688e-05
3155.64	-0.000509644	0.00307251
3157.98	0.517365	6.58875e-05
3160.3	0.518127	1.44958e-05
3162.68	0.516266	0.015744
3165	0.516815	5.78613e-05
3167.32	0.51709	2.03857e-05
3169.7	0.516418	0.0135559
3172.02	0.517853	4.26941e-05
3174.34	0.517975	1.37939e-05
3176.72	0.517639	0.0116486
3179.04	0.516937	4.33044e-05
3181.38	-0.6987	-0.0240021
3183.74	0.517029	0.0098114
3186.06	0.516937	3.5675e-05
3188.4	-0.698547	-0.0210754
3190.76	0.517212	0.00766907
3193.08	0.517029	3.4729e-05
3195.42	-0.698273	-0.0187653
3197.78	0.517273	0.0022168
3200.1	0.516876	3.19824e-05
3202.44	-0.699066	-0.0168732
3204.8	0.517059	0.00051178
3207.12	0.516754	3.02734e-05
3209.48	-0.000567627	0.00509796
3211.82	0.516876	0.000228088
3214.14	0.517426	2.43835e-05
3216.5	0.000732422	0.00424591
3218.84	0.518158	0.000124268
3221.16	0.518127	1.75171e-05
3223.52	0.000692749	0.00357483
3225.86	0.517303	8.87146e-05
3228.18	0.518097	1.62659e-05
3230.54	2.74658e-05	0.00301025
3232.88	0.517731	6.57349e-05
3235.2	0.517944	1.69067e-05
3237.58	0.517273	0.0157166
3239.9	0.517029	5.65186e-05
3242.22	0.518036	1.45874e-05
3244.6	0.516754	0.0135651
3246.92	0.517334	4.89807e-05
3249.24	0.516876	2.23083e-05
3251.62	0.51767	0.0116882
3253.94	0.517456	3.87268e-05
3256.28	-0.698578	-0.0240509
3258.64	0.516663	0.00987549
3260.96	0.51712	3.62549e-05
3263.3	-0.69751	-0.0211487
3265.66	0.516632	0.0078186
3267.98	0.517975	2.74353e-05
3270.32	-0.698792	-0.0188599
3272.68	0.517456	0.00276886
3275	0.518127	2.38953e-05
3277.34	-0.69812	-0.0169708
3279.7	0.516846	0.00057373
3282.02	0.518036	2.24609e-05
3284.38	0.000689697	0.00499847
3286.72	0.518219	0.000240723
3289.04	0.517792	2.14233e-05
3291.4	-0.000500488	0.00417664
3293.74	0.518066	0.000135132
3296.06	0.51712	2.53601e-05
3298.42	-0.000537109	0.00351837
3300.76	0.518158	8.95386e-05
3303.08	0.518219	1.66626e-05
3305.44	0.000753784	0.00295959
3307.78	0.518005	6.70471e-05
3310.1	0.517242	2.09656e-05
3312.48	0.516663	0.0157104
3314.8	0.516968	5.91736e-05
3317.12	0.516846	2.25525e-05
3319.5	0.516327	0.0135803
3321.82	0.5177	4.69055e-05
3324.14	0.517944	1.45874e-05
3326.52	0.516968	0.0117279
3328.84	0.517883	3.74146e-05
3331.18	-0.697327	-0.0240753
3333.54	0.516541	0.00994568
3335.86	0.516876	3.86658e-05
3338.2	-0.697845	-0.0211914
3340.56	0.516418	0.00793457
3342.88	0.516846	3.6438e-05
3345.22	-0.698547	-0.0189178
3347.58	0.517426	0.0033667
3349.9	0.517944	2.63062e-05
3352.24	-0.698914	-0.0170563
3354.6	0.516876	0.00063385
3356.92	0.517731	2.30408e-05
3359.28	-0.000540161	0.00491364
3361.62	0.516876	0.000270142
3363.94	0.518036	2.00195e-05
3366.3	0.000164795	0.00409607
3368.64	0.516876	0.000152496
3370.96	0.517242	2.37427e-05
3373.32	0.000726318	0.00344482
3375.66	0.516785	0.000102692
3377.98	0.518097	1.71204e-05
3380.34	0.000765991	0.00290771
3382.68	0.517151	7.56531e-05
3385	0.518127	1.55334e-05
3387.38	0.515991	0.0157043
3389.7	0.518097	5.34973e-05
3392.02	0.517456	1.98669e-05
3394.4	0.516754	0.0135773
3396.72	0.51712	4.94385e-05
3399.04	0.518127	1.33972e-05
3401.42	0.517334	0.0117584
3403.74	0.516876	4.47693e-05
3406.08	-0.697754	-0.0240875
3408.44	0.516418	0.0100037
3410.76	0.516907	4.09546e-05
3413.1	-0.698578	-0.0212341
3415.46	0.517731	0.00802002
3417.78	0.517975	2.8717e-05
3420.12	-0.698883	-0.018988
3422.48	0.517395	0.00390442
3424.8	0.517303	3.07922e-05
3427.14	-0.698883	-0.0171326
3429.5	0.516846	0.00069458
3431.82	0.518066	2.28882e-05
3434.18	-0.000445557	0.00482452
3436.52	0.51712	0.000289398
3438.84	0.517517	2.53906e-05
3441.2	0.000570679	0.00401672
3443.54	0.516968	0.000159576
3445.86	0.517242	2.40173e-05
3448.22	0.000799561	0.00338562
3450.56	0.517792	0.000101074
3452.88	0.518097	1.66321e-05
3455.24	-0.000323486	0.00286621
3457.58	0.518005	7.1228e-05
3459.9	0.518066	1.44958e-05
3462.28	0.51712	0.015683
3464.6	0.516815	6.31714e-05
3466.92	0.518127	1.43738e-05
3469.3	0.516296	0.0136108
3471.62	0.516876	5.33142e-05
3473.94	0.517792	1.44043e-05
3476.32	0.516418	0.0117981
3478.64	0.518188	3.66516e-05
3480.98	-0.698059	-0.0241028
3483.34	0.517456	0.0100586
3485.66	0.517029	3.79333e-05
3488	-0.698792	-0.021283
3490.36	0.516754	0.00812988
3492.68	0.518219	2.85645e-05
3495.02	-0.697571	-0.0190613
3497.38	0.517487	0.00443115
3499.7	0.517181	3.09753e-05
3502.04	-0.698853	-0.0172028
3504.4	0.517395	0.000755615
3506.72	0.517578	2.70996e-05
3509.08	0.000552368	0.00472809
3511.42	0.51767	0.000309509
3513.74	0.517426	2.51465e-05
3516.1	-5.49316e-05	0.00394623
3518.44	0.517365	0.000170013
3520.76	0.516754	2.70691e-05
3523.12	0.000134277	0.0033197
3525.46	0.516876	0.000112305
3527.78	0.517334	2.33765e-05
3530.14	-0.000427246	0.00280945
3532.48	0.517944	7.56836e-05
3534.8	0.517639	1.82495e-05
3537.18	0.51651	0.0156647
3539.5	0.517334	6.26526e-05
3541.82	0.517029	2.17285e-05
3544.2	0.516388	0.0136108
3546.52	0.51712	5.31616e-05
3548.84	0.516907	2.14539e-05
3551.22	0.516998	0.0118073
3553.54	0.516846	4.65088e-05
3555.88	-0.698578	-0.0241272
3558.24	0.517426	0.0101013
3560.56	0.517181	3.94897e-05
3562.9	-0.698669	-0.0213196
3565.26	0.517883	0.00820007
3567.58	0.518097	2.91138e-05
3569.92	-0.698975	-0.0191132
3572.28	0.517944	0.00483765
3574.6	0.517456	2.97546e-05
3576.94	-0.698761	-0.0172699
3579.3	0.517975	0.000821533
3581.62	0.517212	2.89307e-05
3583.98	-0.000415039	0.00467316
3586.32	0.517609	0.000335266
3588.64	0.517029	2.68555e-05
3591	0.000878906	0.00388519
3593.34	0.517365	0.000181122
3595.66	0.517731	1.84326e-05
3598.02	-0.000405884	0.00327759
3600.36	0.518036	0.000110535
3602.68	0.518005	1.84021e-05
3605.04	-0.000476074	0.002771
3607.38	0.5177	7.88574e-05
3609.7	0.516785	2.45972e-05
3612.08	0.516266	0.0156464
3614.4	0.516846	6.75964e-05
3616.72	0.517975	1.61133e-05
3619.1	0.517181	0.0136139
3621.42	0.516876	5.60608e-05
3623.74	0.517029	2.13013e-05
3626.12	0.516266	0.0118469
3628.44	0.516785	4.78516e-05
3630.78	-0.697876	-0.0241577
3633.14	0.51651	0.0101501
3635.46	0.516907	4.15039e-05
3637.8	-0.698792	-0.0213745
3640.16	0.516632	0.00830688
3642.48	0.518097	2.95105e-05
3644.82	-0.698853	-0.0191833
3647.18	0.51712	0.00521332
3649.5	0.516846	3.46375e-05
3651.84	-0.697815	-0.0173645
3654.2	0.517334	0.000910034
3656.52	0.517578	2.70081e-05
3658.88	0.000222778	0.0045932
3661.22	0.517212	0.000367065
3663.54	0.51767	2.5177e-05
3665.9	0.000177002	0.00381653
3668.24	0.518158	0.000189087
3670.56	0.5177	2.29492e-05
3672.92	0.000534058	0.0032132
3675.26	0.517334	0.000120514
3677.58	0.517242	2.41089e-05
3679.94	-0.000442505	0.00272675
3682.28	0.517029	8.92334e-05
3684.6	0.516998	2.26746e-05
3686.98	0.516296	0.0156433
3689.3	0.517883	6.24695e-05
3691.62	0.518097	1.44653e-05
3694	0.517303	0.0136261
3696.32	0.51767	5.30701e-05
3698.64	0.516876	2.24304e-05
3701.02	0.516296	0.0118835
3703.34	0.516937	4.69666e-05
3705.68	-0.697327	-0.0241913
3708.04	0.516754	0.0102081
3710.36	0.516815	4.34265e-05
3712.7	-0.6987	-0.0214233
3715.06	0.517822	0.00837708
3717.38	0.518036	3.00598e-05
3719.72	-0.698853	-0.0192474
3722.08	0.516876	0.00546417
3724.4	0.517365	3.21655e-05
3726.74	-0.69873	-0.0174347
3729.1	0.516815	0.000982666
3731.42	0.517609	2.63977e-05
3731.54	0.516876	2.21558e-05