File: Edgar/20240531/20240531/electrodeposition_pulsed_potential_20240531_B/pulses_1000_to_2000.txt
Time (s)	WE(1).Potential (V)	WE(1).Current (A)
893.963	-0.698608	-0.0196106
896.323	0.516754	0.000141052
898.643	0.516693	1.55029e-05
900.983	-0.697754	-0.0149261
903.343	0.5177	7.98035e-05
905.663	0.517303	1.19324e-05
908.003	-0.698578	-0.0121704
910.363	0.518219	5.18494e-05
912.683	0.51712	1.08643e-05
915.023	-0.698303	-0.0102112
917.383	0.516785	4.83093e-05
919.703	0.517517	8.3313e-06
922.063	-0.000567627	0.00949097
924.403	0.517029	3.70483e-05
926.723	0.517975	6.95801e-06
929.083	-0.000109863	0.00721252
931.423	0.517548	2.9541e-05
933.743	0.517303	8.3313e-06
936.103	-0.000274658	0.00548279
938.443	0.517059	2.70691e-05
940.763	0.51825	2.92969e-06
943.123	0.000778198	0.00406921
945.463	0.516785	2.5238e-05
947.783	0.518036	2.31934e-06
950.163	0.516541	0.0129272
952.483	0.517456	1.71509e-05
954.803	0.516815	1.07422e-05
957.183	0.516876	0.00797424
959.503	0.5177	1.42517e-05
961.823	0.517883	3.23486e-06
964.203	0.516663	0.00047641
966.523	0.518219	8.69751e-06
968.863	-0.698425	-0.0200165
971.223	0.516876	0.000167908
973.543	0.51712	1.77002e-05
975.883	-0.698456	-0.0153839
978.243	0.51825	9.01794e-05
980.563	0.516815	1.75171e-05
982.903	-0.698303	-0.0126129
985.263	0.517517	6.26526e-05
987.583	0.516754	1.68457e-05
989.923	-0.699463	-0.0106049
992.283	0.518219	4.31519e-05
994.603	0.51767	9.765625E-06
996.963	-0.00101624	0.00934753
999.303	0.517365	4.02832e-05
1001.62	0.517212	1.06812e-05
1003.98	-0.000622559	0.00718597
1006.32	0.51712	3.32642e-05
1008.64	0.517853	5.76782e-06
1011	-0.000567627	0.00552765
1013.34	0.517365	2.92358e-05
1015.66	0.517181	9.82666e-06
1018.02	-7.93457e-05	0.00417572
1020.36	0.516876	2.6062e-05
1022.68	0.516876	1.3031e-05
1025.06	0.516937	0.013385
1027.38	0.516785	2.50244e-05
1029.7	0.516846	1.11389e-05
1032.08	0.517792	0.00888062
1034.4	0.518219	1.40686e-05
1036.72	0.517639	6.16455e-06
1039.1	0.517883	0.000646362
1041.42	0.516785	1.97754e-05
1043.76	-0.698181	-0.0204407
1046.12	0.517181	0.000198639
1048.44	0.517883	1.29395e-05
1050.78	-0.699188	-0.0158417
1053.14	0.516907	0.000108154
1055.46	0.517883	1.03455e-05
1057.8	-0.697998	-0.0130463
1060.16	0.518097	6.62231e-05
1062.48	0.518219	9.06372e-06
1064.82	-0.699371	-0.0110168
1067.18	0.518158	4.79736e-05
1069.5	0.516815	1.58691e-05
1071.86	-0.000195313	0.00915833
1074.2	0.517944	3.9978e-05
1076.52	0.516968	1.47095e-05
1078.88	-0.000558472	0.00711945
1081.22	0.518127	3.01819e-05
1083.54	0.518188	5.92041e-06
1085.9	-4.57764e-05	0.00553223
1088.24	0.516815	3.37219e-05
1090.56	0.517883	5.85937e-06
1092.92	-0.000247192	0.00423462
1095.26	0.517151	2.81372e-05
1097.58	0.517731	7.93457e-06
1099.96	0.517456	0.0137634
1102.28	0.518158	1.87988e-05
1104.6	0.517639	8.5144e-06
1106.98	0.516968	0.00958252
1109.3	0.517944	1.62048e-05
1111.62	0.516815	1.13831e-05
1114	0.517822	0.000981445
1116.32	0.518127	1.35498e-05
1118.66	-0.698029	-0.0208344
1121.02	0.517883	0.000227661
1123.34	0.517853	1.47095e-05
1125.68	-0.697723	-0.0162903
1128.04	0.518005	0.000112762
1130.36	0.517181	1.70288e-05
1132.7	-0.699432	-0.0134613
1135.06	0.516815	8.26111e-05
1137.38	0.517578	1.09863e-05
1139.72	-0.698792	-0.0114197
1142.08	0.51767	5.60608e-05
1144.4	0.516937	1.58691e-05
1146.76	0.000134277	0.00899353
1149.1	0.51828	3.95813e-05
1151.42	0.516785	1.60217e-05
1153.78	-0.000296021	0.00703735
1156.12	0.517914	3.27454e-05
1158.44	0.517761	7.78198e-06
1160.8	0.000595093	0.00552216
1163.14	0.518158	2.76794e-05
1165.46	0.517975	7.90405e-06
1167.82	-0.000372314	0.00428192
1170.16	0.517975	2.39258e-05
1172.48	0.517151	1.15662e-05
1174.86	0.517303	0.0140778
1177.18	0.518097	1.9989e-05
1179.5	0.517426	8.60596e-06
1181.88	0.517883	0.0101257
1184.2	0.516754	2.43225e-05
1186.52	0.517822	6.7749e-06
1188.9	0.518127	0.00231049
1191.22	0.518219	1.44348e-05
1193.56	-0.698639	-0.021167
1195.92	0.518066	0.000273132
1198.24	0.517578	1.72424e-05
1200.58	-0.698914	-0.0166901
1202.94	0.517426	0.000129578
1205.26	0.516724	2.04163e-05
1207.6	-0.698669	-0.0138641
1209.96	0.517487	8.53577e-05
1212.28	0.517273	1.25732e-05
1214.62	-0.699097	-0.0117981
1216.98	0.516754	6.92749e-05
1219.3	0.518341	7.69043e-06
1221.66	0.000170898	0.00879517
1224	0.516754	5.36194e-05
1226.32	0.516998	1.74255e-05
1228.68	-0.000344849	0.0069455
1231.02	0.518005	3.94287e-05
1233.34	0.516907	1.66321e-05
1235.7	0.000299072	0.00549561
1238.04	0.51767	3.62854e-05
1240.36	0.516846	1.3916e-05
1242.72	0.000469971	0.00429504
1245.06	0.5177	2.81067e-05
1247.38	0.517212	1.08337e-05
1249.76	0.516846	0.0143585
1252.08	0.517517	2.4353e-05
1254.4	0.517365	1.03455e-05
1256.78	0.51767	0.0105774
1259.1	0.517853	1.93481e-05
1261.42	0.51767	9.49097e-06
1263.8	0.516846	0.00589508
1266.12	0.51712	2.27966e-05
1268.46	-0.698853	-0.0214661
1270.82	0.517395	0.000332825
1273.14	0.5177	1.62354e-05
1275.48	-0.698273	-0.0170532
1277.84	0.517792	0.000144073
1280.16	0.518005	1.42212e-05
1282.5	-0.699249	-0.014209
1284.86	0.516754	9.56116e-05
1287.18	0.517456	1.62354e-05
1289.52	-0.699036	-0.0121429
1291.88	0.517883	6.3385e-05
1294.2	0.517944	1.02539e-05
1296.56	0.000531006	0.00861511
1298.9	0.517181	5.42908e-05
1301.22	0.518188	7.44629e-06
1303.58	0.000262451	0.00684387
1305.92	0.517853	3.83606e-05
1308.24	0.516876	1.66016e-05
1310.6	-0.000128174	0.00546326
1312.94	0.517883	3.36609e-05
1315.26	0.517242	1.14441e-05
1317.62	-4.88281e-05	0.00430328
1319.96	0.517181	3.19519e-05
1322.28	0.518188	6.62231e-06
1324.66	0.517395	0.0145752
1326.98	0.516876	2.98767e-05
1329.3	0.517212	1.19019e-05
1331.68	0.5177	0.0109467
1334	0.517181	2.61841e-05
1336.32	0.516937	1.22375e-05
1338.7	0.517487	0.0070343
1341.02	0.517456	2.19727e-05
1343.36	-0.698273	-0.0217224
1345.72	0.518066	0.000401398
1348.04	0.517334	2.10876e-05
1350.38	-0.698242	-0.0174103
1352.74	0.518005	0.000156372
1355.06	0.517853	1.60828e-05
1357.4	-0.698029	-0.014566
1359.76	0.517761	9.67102e-05
1362.08	0.516785	2.03857e-05
1364.42	-0.699371	-0.0124725
1366.78	0.517242	7.08008e-05
1369.1	0.517395	1.59302e-05
1371.46	4.88281e-05	0.00840454
1373.8	0.51825	5.07202e-05
1376.12	0.51712	1.65405e-05
1378.48	0.000820923	0.00673248
1380.82	0.518097	4.07104e-05
1383.14	0.517365	1.19019e-05
1385.5	-0.00057373	0.00540436
1387.84	0.517731	3.57056e-05
1390.16	0.516693	1.67236e-05
1392.52	0.000863647	0.0042807
1394.86	0.51709	3.64685e-05
1397.18	0.51828	6.80542e-06
1399.56	0.516174	0.0147614
1401.88	0.51828	2.36816e-05
1404.2	0.517639	9.33838e-06
1406.58	0.517395	0.0112854
1408.9	0.516754	2.96631e-05
1411.22	0.518127	4.73022e-06
1413.6	0.516479	0.00776367
1415.92	0.517517	2.23694e-05
1418.26	-0.697571	-0.0219635
1420.62	0.517548	0.000518188
1422.94	0.517212	2.20947e-05
1425.28	-0.697723	-0.0177216
1427.64	0.518127	0.000177002
1429.96	0.517029	2.19116e-05
1432.3	-0.697937	-0.0148712
1434.66	0.516815	0.000110291
1436.98	0.51767	1.69983e-05
1439.32	-0.698822	-0.0127869
1441.68	0.517883	7.41882e-05
1444	0.51767	1.52283e-05
1446.36	-0.000549316	0.00821838
1448.7	0.518127	5.33752e-05
1451.02	0.516907	1.83716e-05
1453.38	0.000164795	0.00660889
1455.72	0.517212	4.82483e-05
1458.04	0.517151	1.50757e-05
1460.4	0.000457764	0.00533356
1462.74	0.51767	3.83606e-05
1465.06	0.517609	1.3031e-05
1467.42	-0.000598145	0.00426208
1469.76	0.516968	3.60718e-05
1472.08	0.516876	1.54114e-05
1474.46	0.517456	0.0149292
1476.78	0.516937	3.43018e-05
1479.1	0.517853	8.3313e-06
1481.48	0.516541	0.0115631
1483.8	0.517487	2.5116e-05
1486.12	0.517609	1.1261e-05
1488.5	0.517212	0.00829468
1490.82	0.518219	1.94397e-05
1493.16	-0.697632	-0.0221771
1495.52	0.51712	0.000708923
1497.84	0.518036	1.66321e-05
1500.18	-0.698975	-0.0180328
1502.54	0.516815	0.000206268
1504.86	0.517029	1.90735e-05
1507.2	-0.698547	-0.0151886
1509.56	0.516998	0.000119202
1511.88	0.518219	1.35193e-05
1514.22	-0.698608	-0.0131073
1516.58	0.516846	8.58765e-05
1518.9	0.517914	1.25122e-05
1521.26	-0.00078125	0.00804138
1523.6	0.517212	6.36902e-05
1525.92	0.516846	2.0752e-05
1528.28	0.000698853	0.00649811
1530.62	0.518066	4.37622e-05
1532.94	0.517639	1.30615e-05
1535.3	-0.000506592	0.00527466
1537.64	0.516754	4.61121e-05
1539.96	0.518066	8.63647e-06
1542.32	0.000695801	0.00422729
1544.66	0.517456	3.63159e-05
1546.98	0.517059	1.51062e-05
1549.36	0.516998	0.0150726
1551.68	0.516815	3.58887e-05
1554	0.518036	7.47681e-06
1556.38	0.517456	0.0118042
1558.7	0.516907	3.10364e-05
1561.02	0.516785	1.66016e-05
1563.4	0.517273	0.00874939
1565.72	0.517639	2.28577e-05
1568.06	-0.697388	-0.0223602
1570.42	0.517395	0.00109131
1572.74	0.517029	2.6123e-05
1575.08	-0.698364	-0.0183167
1577.44	0.517822	0.000233459
1579.76	0.516785	2.61536e-05
1582.1	-0.699249	-0.0154663
1584.46	0.518158	0.000119537
1586.78	0.516815	2.48108e-05
1589.12	-0.697968	-0.0133942
1591.48	0.518036	8.12988e-05
1593.8	0.518066	1.29089e-05
1593.92	0.518036	6.10352e-06