File: Edgar/20230626/20230626/electrodeposition_prussian_blue/electrodeposition_sample_D/CP_data_2
Time (s)	WE(1).Potential (V)	WE(1).Current (A)
71.2827	0.793152	8.04443e-05
71.7827	0.793762	7.95593e-05
72.2827	0.794373	8.03833e-05
72.7827	0.794983	7.96814e-05
73.2827	0.795593	8.00171e-05
73.7827	0.795898	8.02917e-05
74.2827	0.796509	8.02917e-05
74.7827	0.797119	7.96814e-05
75.2827	0.797424	7.95898e-05
75.7827	0.798035	8.00781e-05
76.2827	0.79834	7.96509e-05
76.7827	0.79895	7.96814e-05
77.2827	0.799255	7.96509e-05
77.7827	0.799561	7.97119e-05
78.2827	0.800171	8.01392e-05
78.7827	0.800476	8.03833e-05
79.2827	0.801086	8.03528e-05
79.7827	0.801392	8.03223e-05
80.2827	0.801697	8.00781e-05
80.7827	0.802307	8.04138e-05
81.2827	0.802612	8.02612e-05
81.7827	0.802917	7.95593e-05
82.2827	0.803223	7.99255e-05
82.7827	0.803223	8.00171e-05
83.2827	0.803833	8.02307e-05
83.7827	0.803833	8.02307e-05
84.2827	0.804138	8.02307e-05
84.7827	0.804749	8.02612e-05
85.2827	0.805054	7.96814e-05
85.7827	0.805359	7.9834e-05
86.2827	0.805664	7.96204e-05
86.7827	0.805969	7.95288e-05
87.2827	0.806274	7.96814e-05
87.7827	0.80658	7.99866e-05
88.2827	0.806274	8.02612e-05
88.7827	0.803528	8.04138e-05
89.2827	0.805664	8.03223e-05
89.7827	0.805359	8.01697e-05
90.2827	0.801697	8.02612e-05
90.7827	0.805054	8.00476e-05
91.2827	0.804138	8.00781e-05
91.7827	0.805664	8.02307e-05
92.2827	0.805054	8.02917e-05
92.7827	0.803833	8.03223e-05
93.2827	0.805969	8.03528e-05
93.7827	0.80658	8.03223e-05
94.2827	0.806274	8.03223e-05
94.7827	0.804749	7.98645e-05
95.2827	0.802612	7.94983e-05
95.7827	0.805054	7.94983e-05
96.2827	0.805664	7.94373e-05
96.7827	0.801086	8.03528e-05
97.2827	0.800171	8.03223e-05
97.7827	0.802917	8.03223e-05
98.2827	0.803528	8.04138e-05
98.7827	0.803528	7.9895e-05
99.2827	0.805664	7.95288e-05
99.7827	0.805054	7.94983e-05
100.283	0.803223	7.9895e-05
100.783	0.804138	7.9895e-05
101.283	0.802002	8.03833e-05
101.783	0.802917	7.9834e-05
102.283	0.803833	7.95288e-05
102.783	0.804749	7.95288e-05
103.283	0.804749	7.97729e-05
103.783	0.804443	7.96814e-05
104.283	0.806885	7.9834e-05
104.783	0.805969	7.97729e-05
105.283	0.806885	7.95898e-05
105.783	0.807495	7.95288e-05
106.283	0.808105	8.02002e-05
106.783	0.8078	8.03833e-05
107.283	0.80719	7.99255e-05
107.783	0.80719	7.97119e-05
108.283	0.8078	7.96509e-05
108.783	0.809631	7.96814e-05
109.283	0.809021	7.94983e-05
109.783	0.809326	7.98035e-05
110.283	0.809021	7.95898e-05
110.783	0.807495	8.04749e-05
111.283	0.807495	7.97119e-05
111.783	0.80719	8.00476e-05
112.283	0.806274	7.99561e-05
112.783	0.808105	8.02307e-05
113.283	0.805054	8.03528e-05
113.783	0.804443	8.03528e-05
114.283	0.804749	8.02612e-05
114.783	0.808105	8.02307e-05
115.283	0.805664	8.04443e-05
115.783	0.802917	7.97729e-05
116.283	0.798645	8.00171e-05
116.783	0.801392	8.02917e-05
117.283	0.806274	8.04138e-05
117.783	0.804443	7.96509e-05
118.283	0.804138	7.95288e-05
118.783	0.805359	7.95288e-05
119.283	0.797729	7.95288e-05
119.783	0.800781	7.95288e-05
120.283	0.804443	8.02917e-05
120.783	0.803528	8.04138e-05
121.283	0.800171	7.9834e-05
121.783	0.804443	7.95898e-05
122.283	0.794678	7.95593e-05
122.783	0.799561	7.96814e-05
123.283	0.801392	7.96814e-05
123.783	0.803528	7.99561e-05
124.283	0.801392	8.03223e-05
124.783	0.799866	7.98035e-05
125.283	0.797729	7.95593e-05
125.783	0.799866	8.03223e-05
126.283	0.802307	7.97424e-05
126.783	0.802917	7.94983e-05
127.283	0.803528	7.95288e-05
127.783	0.799255	7.95898e-05
128.283	0.803833	7.95593e-05
128.783	0.802612	7.94373e-05
129.283	0.801086	7.92542e-05
129.783	0.800171	8.01086e-05
130.283	0.803223	7.91626e-05
130.783	0.802917	7.90405e-05
131.283	0.801086	8.03223e-05
131.783	0.79895	8.09326e-05
132.283	0.802307	8.0719e-05
132.783	0.803528	8.00781e-05
133.283	0.798645	7.91626e-05
133.783	0.803833	7.8949e-05
134.283	0.801697	8.04443e-05
134.783	0.804443	7.93762e-05
135.283	0.801086	7.86743e-05
135.783	0.803223	7.88879e-05
136.283	0.804138	7.89185e-05
136.783	0.79895	7.87659e-05
137.283	0.799866	7.87659e-05
137.783	0.803833	7.89185e-05
138.283	0.800476	7.95288e-05
138.783	0.79895	8.08716e-05
139.283	0.803833	8.09326e-05
139.783	0.800476	8.02917e-05
140.283	0.802612	7.92542e-05
140.783	0.802917	7.86133e-05
141.283	0.798035	8.10242e-05
141.783	0.801697	8.12988e-05
142.283	0.800781	7.91626e-05
142.783	0.796509	7.85828e-05
143.283	0.803833	7.98035e-05
143.783	0.797119	7.94067e-05
144.283	0.794678	8.06885e-05
144.783	0.803528	8.15735e-05
145.283	0.79834	7.97119e-05
145.783	0.796509	7.86438e-05
146.283	0.802612	8.11157e-05
146.783	0.799866	8.02002e-05
147.283	0.803223	7.89185e-05
147.783	0.799866	7.85522e-05
148.283	0.803528	7.88269e-05
148.783	0.800171	7.87048e-05
149.283	0.797729	8.02002e-05
149.783	0.802917	7.96204e-05
150.283	0.802917	7.87354e-05
150.783	0.796509	8.06885e-05
151.283	0.796509	8.10242e-05
151.783	0.802612	7.91626e-05
152.283	0.79834	7.901e-05
152.783	0.796509	7.86438e-05
153.283	0.799561	7.90405e-05
153.783	0.802002	8.10852e-05
154.283	0.799866	8.12073e-05
154.783	0.795288	7.95593e-05
155.283	0.801697	7.96814e-05
155.783	0.801697	7.91016e-05
156.283	0.796509	7.92847e-05
156.783	0.795898	8.04138e-05
157.283	0.800781	8.08105e-05
157.783	0.800781	8.02307e-05
158.283	0.792542	7.88879e-05
158.783	0.796509	7.93762e-05
159.283	0.800476	8.0719e-05
159.783	0.794678	8.09326e-05
160.283	0.79895	8.02002e-05
160.783	0.801086	8.12988e-05
161.283	0.79834	8.01392e-05
161.783	0.798645	8.11768e-05
162.283	0.801697	8.13293e-05
162.783	0.799866	7.8949e-05
163.283	0.79834	7.91016e-05
163.783	0.800171	7.86438e-05
164.283	0.799255	7.87048e-05
164.783	0.801086	7.85828e-05
165.283	0.79895	7.84607e-05
165.783	0.802307	8.00476e-05
166.283	0.799561	7.901e-05
166.783	0.796204	7.84912e-05
167.283	0.800476	7.91626e-05
167.783	0.802917	7.95288e-05
168.283	0.800476	7.85522e-05
168.783	0.802917	7.87964e-05
169.283	0.802612	7.84607e-05
169.783	0.802002	7.84912e-05
170.283	0.801086	7.84302e-05
170.783	0.800781	7.91626e-05
171.283	0.803223	7.88269e-05
171.783	0.802307	7.86438e-05
172.283	0.801392	7.87964e-05
172.783	0.800781	8.02612e-05
173.283	0.796814	7.96509e-05
173.783	0.795593	7.9071e-05
174.283	0.802917	8.06274e-05
174.783	0.801697	8.11157e-05
175.283	0.797119	8.11462e-05
175.783	0.795288	8.15125e-05
176.283	0.801697	7.99561e-05
176.783	0.801697	8.14819e-05
177.283	0.793152	8.14819e-05
177.783	0.787354	7.91626e-05
178.283	0.794678	7.85522e-05
178.783	0.793152	7.92542e-05
179.283	0.796814	8.04138e-05
179.783	0.791931	8.1604e-05
180.283	0.795593	7.82471e-05
180.783	0.794983	8.1665e-05
181.283	0.793457	7.84302e-05
181.783	0.794373	8.15735e-05
182.283	0.784302	7.87354e-05
182.783	0.789795	8.02612e-05
183.283	0.791016	8.09631e-05
183.783	0.795288	7.85828e-05
184.283	0.788574	8.13599e-05
184.783	0.781555	7.85522e-05
185.283	0.783691	8.10547e-05
185.783	0.786438	7.91016e-05
186.283	0.792542	8.15735e-05
186.783	0.787354	7.86133e-05
187.283	0.778809	7.89185e-05
187.783	0.782776	8.1604e-05
188.283	0.7901	7.92236e-05
188.783	0.779419	7.89185e-05
189.283	0.776062	8.12378e-05
189.783	0.78949	8.00171e-05
190.283	0.785217	7.84302e-05
190.783	0.781555	8.17261e-05
191.283	0.78125	8.1543e-05
191.783	0.78064	7.84302e-05
192.283	0.786133	8.14514e-05
192.783	0.775146	7.85828e-05
193.283	0.783691	8.03833e-05
193.783	0.785217	8.09631e-05
194.283	0.7724	7.83997e-05
194.783	0.772705	8.13599e-05
195.283	0.776367	8.14819e-05
195.783	0.775452	7.85522e-05
196.283	0.782166	7.85522e-05
196.783	0.776367	7.90405e-05
197.283	0.78125	8.10547e-05
197.783	0.774231	7.83691e-05
198.283	0.776062	8.18176e-05
198.783	0.775757	7.82776e-05
199.283	0.780334	8.14819e-05
199.783	0.779114	7.83081e-05
200.283	0.772095	7.87048e-05
200.783	0.769043	7.87964e-05
201.283	0.77179	8.05359e-05
201.783	0.77301	7.95593e-05
202.283	0.776672	8.08411e-05
202.783	0.780029	7.88879e-05
203.283	0.773621	8.1604e-05
203.783	0.771484	7.85828e-05
204.283	0.776672	8.11462e-05
204.783	0.778503	8.01086e-05
205.283	0.770569	7.83997e-05
205.783	0.769958	8.14209e-05
206.283	0.778809	7.84607e-05
206.783	0.770264	7.99255e-05
207.283	0.772705	8.14514e-05
207.783	0.778503	7.98035e-05
208.283	0.768738	7.87964e-05
208.783	0.764771	7.83691e-05
209.283	0.772705	7.85828e-05
209.783	0.775757	7.8949e-05
210.283	0.776367	7.85828e-05
210.783	0.768433	7.8186e-05
211.283	0.768738	8.0719e-05
211.783	0.777283	8.05664e-05
212.283	0.774841	7.89185e-05
212.783	0.770569	8.02307e-05
213.283	0.767517	7.92236e-05
213.783	0.770874	8.05969e-05
214.283	0.773621	7.89185e-05
214.783	0.776367	7.84607e-05
215.283	0.776367	8.02002e-05
215.783	0.774536	8.15125e-05
216.283	0.767212	8.19702e-05
216.783	0.767822	7.84912e-05
217.283	0.775146	7.85828e-05
217.783	0.775452	7.85217e-05
218.283	0.773315	7.83997e-05
218.783	0.768127	7.85522e-05
219.283	0.768127	7.82471e-05
219.783	0.769043	8.06274e-05
220.283	0.770569	8.17566e-05
220.783	0.775452	8.19397e-05
221.183	0.762634	8.14514e-05