File: Edgar/20230626/20230626/electrodeposition_prussian_blue/electrodeposition_sample_D/OCP_3
Time (s)	WE(1).Potential (V)
222.194	0.767517
223.194	0.769958
224.194	0.770264
225.194	0.770874
226.194	0.771179
227.194	0.771179
228.194	0.771484
229.194	0.77179
230.194	0.772095
231.194	0.772095
232.194	0.7724
233.194	0.772705
234.194	0.772705
235.194	0.77301
236.194	0.77301
237.194	0.773315
238.194	0.773315
239.194	0.773315
240.194	0.773621
241.194	0.773621
242.194	0.773926
243.194	0.773926
244.194	0.773926
245.194	0.773926
246.194	0.774231
247.194	0.774231
248.194	0.774231
249.194	0.774231
250.194	0.774231
251.194	0.774231
252.194	0.774231
253.194	0.774231
254.194	0.774231
255.194	0.774231
256.194	0.774231
257.194	0.774231