File: Edgar/20240515/20240515/EC_measurements/Sample_20240502_B/steps/data/OCP_3
Time (s)	WE(1).Potential (V)
680.574	0.917358
681.574	0.854492
682.574	0.799866
683.574	0.751038
684.574	0.706787
685.574	0.666199
686.574	0.628357
687.574	0.593567
688.574	0.561218
689.574	0.531006
690.574	0.502625
691.574	0.475922
692.574	0.451233
693.574	0.428345
694.574	0.407349
695.574	0.388062
696.574	0.3703
697.574	0.353912
698.574	0.338745
699.574	0.324707
700.574	0.311798
701.574	0.299988
702.574	0.289246
703.574	0.279541
704.574	0.270782
705.574	0.262878
706.574	0.255768
707.574	0.249298
708.574	0.243439
709.574	0.238098
710.574	0.233246
711.574	0.22876
712.574	0.224701
713.574	0.220886
714.574	0.217407
715.574	0.214172
716.574	0.211151
717.574	0.208344
718.574	0.205719
719.574	0.203247
720.574	0.200928
721.574	0.19873
722.574	0.196686
723.574	0.194733
724.574	0.192902
725.574	0.191132
726.574	0.189484
727.574	0.187866
728.574	0.18634
729.574	0.184875
730.574	0.183502
731.574	0.182159
732.574	0.180908
733.574	0.179657
734.574	0.178497
735.574	0.177338
736.574	0.176239
737.574	0.175201
738.574	0.174164
739.574	0.173187
740.574	0.172241
741.574	0.171295
742.574	0.17041
743.574	0.169525
744.574	0.168701
745.574	0.167908
746.574	0.167084
747.574	0.166321
748.574	0.165588
749.574	0.164856
750.574	0.164154
751.574	0.163452
752.574	0.162781
753.574	0.16214
754.574	0.161499
755.574	0.160889
756.574	0.160278
757.574	0.159698
758.574	0.159119
759.574	0.158569
760.574	0.15799
761.574	0.157471
762.574	0.156921
763.574	0.156433
764.574	0.155914
765.574	0.155457
766.574	0.154968
767.574	0.15448
768.574	0.154022
769.574	0.153564
770.574	0.153076
771.574	0.152649
772.574	0.152222
773.574	0.151764
774.574	0.151367
775.574	0.15094
776.574	0.150543
777.574	0.150146
778.574	0.14978
779.574	0.149353
780.574	0.149017
781.574	0.148621
782.574	0.148254
783.574	0.147919
784.574	0.147552
785.574	0.147217
786.574	0.146851
787.574	0.146545
788.574	0.146179
789.574	0.145874
790.574	0.145569
791.574	0.145233
792.574	0.144928
793.574	0.144623
794.574	0.144318
795.574	0.144012
796.574	0.143738
797.574	0.143433
798.574	0.143158
799.574	0.142883