File: Edgar/20240515/20240515/EC_measurements/Sample_20240502_B/steps/data/OCP_1
Time (s)	WE(1).Potential (V)
2.03377	0.0484344
3.03377	0.0484955
4.03377	0.0485596
5.03377	0.0486389
6.03377	0.048703
7.03377	0.0487427
8.03377	0.0488007
9.03377	0.0488647
10.0338	0.0489319
11.0338	0.048999
12.0338	0.0490601
13.0338	0.0491333
14.0338	0.0491638
15.0338	0.0492554
16.0338	0.0493164
17.0338	0.0493774
18.0338	0.0494385
19.0338	0.0494995
20.0338	0.0495605
21.0338	0.0496216
22.0338	0.0497131
23.0338	0.0497437
24.0338	0.0498047
25.0338	0.0498657
26.0338	0.0499268
27.0338	0.0499878
28.0338	0.0500488
29.0338	0.0500793
30.0338	0.0501404
31.0338	0.0502014
32.0338	0.0502625
33.0338	0.0503235
34.0338	0.0503845
35.0338	0.0504456
36.0338	0.0504761
37.0338	0.0505371
38.0338	0.0505981
39.0338	0.0506592
40.0338	0.0507202
41.0338	0.0508118
42.0338	0.0508728
43.0338	0.0509338
44.0338	0.0509949
45.0338	0.0510254
46.0338	0.0510864
47.0338	0.0511475
48.0338	0.051239
49.0338	0.0513
50.0338	0.0513611
51.0338	0.0513916
52.0338	0.0514526
53.0338	0.0515137
54.0338	0.0515747
55.0338	0.0516052
56.0338	0.0516663
57.0338	0.0517273
58.0338	0.0517578
59.0338	0.0518188
60.0338	0.0518799
61.0338	0.0519409