File: Edgar/20230201 (1)/cv_data_c.txt
Potential applied (V)	Time (s)	WE(1).Current (A)	WE(1).Potential (V)
0.00259399	15.6222	2.39258e-06	0.00292969
0.0196838	15.964	1.80573e-05	0.0199615
0.0367737	16.3058	3.3725e-05	0.0370392
0.0538635	16.6476	4.93744e-05	0.053894
0.0709534	16.9894	6.5033e-05	0.0709534
0.0880432	17.3312	8.0719e-05	0.0879822
0.105133	17.6729	9.63745e-05	0.105011
0.122223	18.0147	0.00011203	0.122101
0.139313	18.3565	0.000127686	0.13916
0.156403	18.6983	0.000143341	0.156158
0.173492	19.0401	0.000159027	0.173218
0.190582	19.3819	0.000174683	0.190277
0.207672	19.7237	0.000190338	0.207306
0.224762	20.0655	0.000205994	0.224365
0.241852	20.4073	0.00022168	0.241394
0.258942	20.7491	0.000237335	0.258392
0.276031	21.0909	0.000252991	0.275452
0.293121	21.4327	0.000268646	0.292511
0.310211	21.7745	0.000284302	0.309509
0.327301	22.1163	0.000300018	0.326477
0.344391	22.4581	0.000315918	0.344147
0.361481	22.7999	0.000331573	0.361206
0.378571	23.1417	0.000347229	0.378326
0.39566	23.4835	0.000362915	0.395386
0.41275	23.8253	0.000378571	0.412476
0.42984	24.1671	0.000394226	0.429596
0.44693	24.5089	0.000409882	0.446564
0.46402	24.8507	0.000425568	0.463684
0.48111	25.1925	0.000441223	0.480743
0.498199	25.5343	0.000456909	0.497803
0.485992	25.8761	0.000445709	0.485565
0.468903	26.2178	0.000430023	0.468506
0.451813	26.5596	0.000414368	0.451477
0.434723	26.9014	0.000398712	0.434418
0.417633	27.2432	0.000383026	0.417328
0.400543	27.585	0.000367371	0.400208
0.383453	27.9268	0.000351685	0.383179
0.366364	28.2686	0.000336029	0.366211
0.349274	28.6104	0.000320374	0.34906
0.332184	28.9522	0.0003046875	0.33197
0.315094	29.294	0.000289032	0.31485
0.298004	29.6358	0.000273315	0.29776
0.280914	29.9776	0.00025766	0.280762
0.263824	30.3194	0.000242004	0.263641
0.246735	30.6612	0.000226318	0.246613
0.229645	31.003	0.000210663	0.229523
0.212555	31.3448	0.000194977	0.212433
0.195465	31.6866	0.000179321	0.195404
0.178375	32.0284	0.000163635	0.178314
0.161285	32.3702	0.00014798	0.161285
0.144196	32.712	0.000132294	0.144196
0.127106	33.0538	0.000116638	0.127167
0.110016	33.3956	0.000100983	0.110077
0.092926	33.7374	8.52051e-05	0.092865
0.0758362	34.0792	6.9519e-05	0.0757751
0.0587463	34.421	5.38635e-05	0.0586853
0.0416565	34.7627	3.81805e-05	0.0419189
0.0245667	35.1045	2.25311e-05	0.0248322
0.00747681	35.4463	6.8634e-06	0.00777893
-0.00961304	35.7881	-8.80127e-06	-0.00928955
-0.0267029	36.1299	-2.44629e-05	-0.0263275
-0.0437927	36.4717	-4.01306e-05	-0.0434357
-0.0608826	36.8135	-5.58167e-05	-0.0606384
-0.0779724	37.1553	-7.15027e-05	-0.0776672
-0.0950623	37.4971	-8.71582e-05	-0.0947266
-0.112152	37.8389	-0.000102844	-0.111816
-0.129242	38.1807	-0.0001185	-0.128876
-0.146332	38.5225	-0.000134155	-0.145935
-0.163422	38.8643	-0.000149841	-0.162994
-0.180511	39.2061	-0.000165497	-0.179993
-0.197601	39.5479	-0.000181152	-0.197021
-0.214691	39.8897	-0.000196838	-0.21405
-0.231781	40.2315	-0.000212494	-0.23111
-0.248871	40.5733	-0.00022818	-0.248169
-0.265961	40.9151	-0.000243835	-0.265198
-0.283051	41.2569	-0.000259491	-0.282257
-0.30014	41.5987	-0.000275177	-0.299286
-0.31723	41.9405	-0.000290863	-0.316315
-0.33432	42.2823	-0.000306549	-0.333923
-0.35141	42.6241	-0.000322235	-0.350983
-0.3685	42.9659	-0.000337891	-0.368134
-0.38559	43.3076	-0.000353577	-0.385193
-0.402679	43.6494	-0.000369263	-0.402283
-0.419769	43.9912	-0.000384949	-0.419312
-0.436859	44.333	-0.000400604	-0.436432
-0.453949	44.6748	-0.00041629	-0.453491
-0.471039	45.0166	-0.000431946	-0.47052
-0.488129	45.3584	-0.000447632	-0.48764
-0.495453	45.7002	-0.000454346	-0.494965
-0.478363	46.042	-0.00043869	-0.477844
-0.461273	46.3838	-0.000423004	-0.460876
-0.444183	46.7256	-0.000407318	-0.443726
-0.427094	47.0674	-0.000391663	-0.426636
-0.410004	47.4092	-0.000375977	-0.409576
-0.392914	47.751	-0.000360321	-0.392456
-0.375824	48.0928	-0.000344635	-0.375427
-0.358734	48.4346	-0.000328949	-0.358337
-0.341644	48.7764	-0.000313293	-0.341248
-0.324554	49.1182	-0.000297607	-0.324188
-0.307465	49.46	-0.000281921	-0.307068
-0.290375	49.8018	-0.000266235	-0.290009
-0.273285	50.1436	-0.000250549	-0.272949
-0.256195	50.4854	-0.000234894	-0.255859
-0.239105	50.8272	-0.000219208	-0.238739
-0.222015	51.169	-0.000203522	-0.22168
-0.204926	51.5108	-0.000187866	-0.204651
-0.187836	51.8525	-0.000172211	-0.187531
-0.170746	52.1943	-0.000156525	-0.170471
-0.153656	52.5361	-0.000140839	-0.153381
-0.136566	52.8779	-0.000125153	-0.136292
-0.119476	53.2197	-0.000109497	-0.119232
-0.102386	53.5615	-9.38416e-05	-0.102142
-0.0852966	53.9033	-7.82166e-05	-0.085022
-0.0682068	54.2451	-6.25305e-05	-0.0679016
-0.0511169	54.5869	-4.68414e-05	-0.0508118
-0.0340271	54.9287	-3.11859e-05	-0.0336884
-0.0169373	55.2705	-1.55151e-05	-0.0166199
0.000152588	55.6123	1.47095e-07	0.000469971
0.0172424	55.9541	1.58173e-05	0.0175049
0.0343323	56.2959	3.14819e-05	0.0345673
0.0514221	56.6377	4.71313e-05	0.0514221
0.068512	56.9795	6.28052e-05	0.0684814
0.0856018	57.3213	7.84607e-05	0.0855408
0.102692	57.6631	9.41467e-05	0.102631
0.119781	58.0049	0.000109802	0.119629
0.136871	58.3467	0.000125458	0.136627
0.153961	58.6885	0.000141113	0.153717
0.171051	59.0303	0.000156769	0.170868
0.188141	59.3721	0.000172455	0.187836
0.205231	59.7139	0.00018811	0.204895
0.222321	60.0557	0.000203766	0.221954
0.23941	60.3974	0.000219421	0.238983
0.2565	60.7392	0.000235107	0.256042
0.27359	61.081	0.000250732	0.272949
0.29068	61.4228	0.000266418	0.290039
0.30777	61.7646	0.000282074	0.307007
0.32486	62.1064	0.00029776	0.324127
0.341949	62.4482	0.00031366	0.341766
0.359039	62.79	0.000329346	0.358856
0.376129	63.1318	0.000345001	0.375824
0.393219	63.4736	0.000360687	0.392944
0.410309	63.8154	0.000376343	0.410034
0.427399	64.1572	0.000391998	0.427094
0.444489	64.499	0.000407654	0.444183
0.461578	64.8408	0.00042334	0.461243
0.478668	65.1826	0.000438995	0.478302
0.495758	65.5244	0.000454681	0.495422
0.488434	65.8662	0.000447968	0.488068
0.471344	66.208	0.000432281	0.470978
0.454254	66.5498	0.000416595	0.453888
0.437164	66.8916	0.00040094	0.436859
0.420074	67.2334	0.000385284	0.419769
0.402985	67.5752	0.000369629	0.402771
0.385895	67.917	0.000353943	0.385651
0.368805	68.2588	0.000338287	0.368622
0.351715	68.6006	0.000322601	0.351501
0.334625	68.9423	0.000306946	0.334442
0.317535	69.2841	0.00029126	0.317352
0.300446	69.6259	0.000275574	0.300262
0.283356	69.9677	0.000259888	0.283203
0.266266	70.3095	0.000244232	0.266113
0.249176	70.6513	0.000228577	0.249054
0.232086	70.9931	0.000212891	0.231964
0.214996	71.3349	0.000197235	0.214935
0.197906	71.6767	0.000181549	0.197815
0.180817	72.0185	0.000165863	0.180756
0.163727	72.3603	0.000150208	0.163696
0.146637	72.7021	0.000134552	0.146606
0.129547	73.0439	0.000118866	0.129578
0.112457	73.3857	0.00010321	0.112488
0.0953674	73.7275	8.74329e-05	0.0953064
0.0782776	74.0693	7.17468e-05	0.0782166
0.0611877	74.4111	5.60913e-05	0.0611572
0.0440979	74.7529	4.04175e-05	0.0443512
0.0270081	75.0947	2.47681e-05	0.027298
0.00991821	75.4365	9.10034e-06	0.0102173
-0.00717163	75.7783	-6.55823e-06	-0.00684509
-0.0242615	76.1201	-2.22229e-05	-0.0238983
-0.0413513	76.4619	-3.78937e-05	-0.0410004
-0.0584412	76.8037	-5.35889e-05	-0.058136
-0.075531	77.1455	-6.92444e-05	-0.0752258
-0.0926208	77.4872	-8.49304e-05	-0.0923462
-0.109711	77.829	-0.000100586	-0.109375
-0.126801	78.1708	-0.000116272	-0.126434
-0.14389	78.5126	-0.000131927	-0.143463
-0.16098	78.8544	-0.000147583	-0.160461
-0.17807	79.1962	-0.000163269	-0.177582
-0.19516	79.538	-0.000178925	-0.194611
-0.21225	79.8798	-0.00019458	-0.21167
-0.22934	80.2216	-0.000210266	-0.228607
-0.246429	80.5634	-0.000225952	-0.245758
-0.263519	80.9052	-0.000241608	-0.262756
-0.280609	81.247	-0.000257263	-0.279785
-0.297699	81.5888	-0.000272949	-0.296783
-0.314789	81.9306	-0.000288635	-0.313965
-0.331879	82.2724	-0.000304321	-0.331512
-0.348969	82.6142	-0.000320007	-0.348541
-0.366058	82.956	-0.000335663	-0.365692
-0.383148	83.2978	-0.000351349	-0.382721
-0.400238	83.6396	-0.000367035	-0.39978
-0.417328	83.9814	-0.00038269	-0.41684
-0.434418	84.3232	-0.000398376	-0.43399
-0.451508	84.665	-0.000414032	-0.450989
-0.468597	85.0068	-0.000429749	-0.46814
-0.485687	85.3486	-0.000445374	-0.485168
-0.497894	85.6904	-0.000456604	-0.497375
-0.480804	86.0321	-0.000440918	-0.480347
-0.463715	86.3739	-0.000425262	-0.463257
-0.446625	86.7157	-0.000409546	-0.446106
-0.429535	87.0575	-0.00039389	-0.429108
-0.412445	87.3993	-0.000378235	-0.412048
-0.395355	87.7411	-0.000362549	-0.394958
-0.378265	88.0829	-0.000346863	-0.377899
-0.361176	88.4247	-0.000331207	-0.360809
-0.344086	88.7665	-0.000315521	-0.343719
-0.326996	89.1083	-0.000299835	-0.32666
-0.309906	89.4501	-0.000284149	-0.309509
-0.292816	89.7919	-0.000268463	-0.292419
-0.275726	90.1337	-0.000252777	-0.275391
-0.258636	90.4755	-0.000237122	-0.258301
-0.241547	90.8173	-0.000221436	-0.241211
-0.224457	91.1591	-0.00020578	-0.224152
-0.207367	91.5009	-0.000190094	-0.207062
-0.190277	91.8427	-0.000174438	-0.190002
-0.173187	92.1845	-0.000158752	-0.172882
-0.156097	92.5263	-0.000143097	-0.155792
-0.139008	92.8681	-0.000127411	-0.138733
-0.121918	93.2099	-0.000111725	-0.121674
-0.104828	93.5517	-9.60693e-05	-0.104584
-0.087738	93.8935	-8.04443e-05	-0.0874329
-0.0706482	94.2353	-6.47583e-05	-0.0704041
-0.0535583	94.577	-4.90784e-05	-0.0532837
-0.0364685	94.9188	-3.34259e-05	-0.0361359
-0.0193787	95.2606	-1.77521e-05	-0.019046
-0.00228882	95.6024	-2.09106e-06	-0.00196228
0.000152588	95.6513	1.46484e-07	0.000497437