File: Edgar/20230201 (1)/cv_data_d.txt
Potential applied (V)	Time (s)	WE(1).Current (A)	WE(1).Potential (V)
0.00259399	10.0341	2.38586e-06	0.00294189
0.0196838	10.3759	1.80573e-05	0.0199585
0.0367737	10.7177	3.37158e-05	0.0370331
0.0538635	11.0595	4.93713e-05	0.053894
0.0709534	11.4013	6.5033e-05	0.0708923
0.0880432	11.743	8.0719e-05	0.0879822
0.105133	12.0848	9.63745e-05	0.105042
0.122223	12.4266	0.00011203	0.122162
0.139313	12.7684	0.000127686	0.139099
0.156403	13.1102	0.000143341	0.15625
0.173492	13.452	0.000158997	0.173218
0.190582	13.7938	0.000174683	0.190277
0.207672	14.1356	0.000190338	0.207336
0.224762	14.4774	0.000205994	0.224335
0.241852	14.8192	0.00022168	0.241425
0.258942	15.161	0.000237335	0.258392
0.276031	15.5028	0.000252991	0.275452
0.293121	15.8446	0.000268646	0.292511
0.310211	16.1864	0.000284302	0.309509
0.327301	16.5282	0.000300018	0.326599
0.344391	16.87	0.000315887	0.344208
0.361481	17.2118	0.000331573	0.361298
0.378571	17.5536	0.000347229	0.378296
0.39566	17.8954	0.000362915	0.395355
0.41275	18.2372	0.000378571	0.412476
0.42984	18.579	0.000394226	0.429504
0.44693	18.9208	0.000409882	0.446625
0.46402	19.2626	0.000425568	0.463623
0.48111	19.6044	0.000441223	0.480743
0.498199	19.9462	0.000456909	0.497803
0.485992	20.2879	0.000445709	0.485596
0.468903	20.6297	0.000430023	0.468506
0.451813	20.9715	0.000414368	0.451477
0.434723	21.3133	0.000398682	0.434448
0.417633	21.6551	0.000383026	0.417328
0.400543	21.9969	0.000367371	0.400269
0.383453	22.3387	0.000351685	0.383179
0.366364	22.6805	0.000336029	0.366058
0.349274	23.0223	0.000320343	0.348999
0.332184	23.3641	0.0003046875	0.332001
0.315094	23.7059	0.000289001	0.31485
0.298004	24.0477	0.000273315	0.297821
0.280914	24.3895	0.00025766	0.280701
0.263824	24.7313	0.000242004	0.263702
0.246735	25.0731	0.000226318	0.246643
0.229645	25.4149	0.000210663	0.229584
0.212555	25.7567	0.000194977	0.212463
0.195465	26.0985	0.000179291	0.195374
0.178375	26.4403	0.000163635	0.178314
0.161285	26.7821	0.00014798	0.161285
0.144196	27.1239	0.000132324	0.144226
0.127106	27.4657	0.000116638	0.127136
0.110016	27.8075	0.000100983	0.110046
0.092926	28.1493	8.52051e-05	0.0928345
0.0758362	28.4911	6.9519e-05	0.0757751
0.0587463	28.8328	5.38635e-05	0.0587158
0.0416565	29.1746	3.81805e-05	0.0419098
0.0245667	29.5164	2.25281e-05	0.0248505
0.00747681	29.8582	6.86035e-06	0.00778503
-0.00961304	30.2	-8.80127e-06	-0.00928955
-0.0267029	30.5418	-2.44659e-05	-0.0263275
-0.0437927	30.8836	-4.01276e-05	-0.0434296
-0.0608826	31.2254	-5.58167e-05	-0.0605774
-0.0779724	31.5672	-7.15027e-05	-0.0776367
-0.0950623	31.909	-8.71582e-05	-0.0947571
-0.112152	32.2508	-0.000102844	-0.111755
-0.129242	32.5926	-0.0001185	-0.128845
-0.146332	32.9344	-0.000134155	-0.145844
-0.163422	33.2762	-0.000149811	-0.162933
-0.180511	33.618	-0.000165497	-0.179993
-0.197601	33.9598	-0.000181152	-0.197021
-0.214691	34.3016	-0.000196838	-0.214142
-0.231781	34.6434	-0.000212494	-0.23114
-0.248871	34.9852	-0.00022818	-0.248138
-0.265961	35.327	-0.000243835	-0.265167
-0.283051	35.6688	-0.000259491	-0.282288
-0.30014	36.0106	-0.000275177	-0.299286
-0.31723	36.3524	-0.000290863	-0.316254
-0.33432	36.6942	-0.000306549	-0.334015
-0.35141	37.036	-0.000322235	-0.351013
-0.3685	37.3777	-0.000337921	-0.368073
-0.38559	37.7195	-0.000353577	-0.385132
-0.402679	38.0613	-0.000369263	-0.402222
-0.419769	38.4031	-0.000384918	-0.419312
-0.436859	38.7449	-0.000400604	-0.436432
-0.453949	39.0867	-0.00041629	-0.453522
-0.471039	39.4285	-0.000431976	-0.470459
-0.488129	39.7703	-0.000447632	-0.487671
-0.495453	40.1121	-0.000454346	-0.494904
-0.478363	40.4539	-0.00043869	-0.477905
-0.461273	40.7957	-0.000423004	-0.460785
-0.444183	41.1375	-0.000407318	-0.443787
-0.427094	41.4793	-0.000391663	-0.426666
-0.410004	41.8211	-0.000375977	-0.409576
-0.392914	42.1629	-0.000360321	-0.392487
-0.375824	42.5047	-0.000344635	-0.375427
-0.358734	42.8465	-0.000328949	-0.358307
-0.341644	43.1883	-0.000313293	-0.341278
-0.324554	43.5301	-0.000297607	-0.324219
-0.307465	43.8719	-0.000281891	-0.307098
-0.290375	44.2137	-0.000266235	-0.289978
-0.273285	44.5555	-0.00025058	-0.272888
-0.256195	44.8973	-0.000234894	-0.255859
-0.239105	45.2391	-0.000219208	-0.2388
-0.222015	45.5809	-0.000203552	-0.221649
-0.204926	45.9226	-0.000187866	-0.20459
-0.187836	46.2644	-0.00017218	-0.1875
-0.170746	46.6062	-0.000156494	-0.170441
-0.153656	46.948	-0.000140839	-0.153381
-0.136566	47.2898	-0.000125153	-0.136292
-0.119476	47.6316	-0.000109497	-0.119202
-0.102386	47.9734	-9.3811e-05	-0.102173
-0.0852966	48.3152	-7.82166e-05	-0.0849915
-0.0682068	48.657	-6.25305e-05	-0.0679321
-0.0511169	48.9988	-4.68414e-05	-0.0508423
-0.0340271	49.3406	-3.11829e-05	-0.0336914
-0.0169373	49.6824	-1.55182e-05	-0.0166046
0.000152588	50.0242	1.474e-07	0.000485229
0.0172424	50.366	1.58142e-05	0.0175262
0.0343323	50.7078	3.14789e-05	0.0345734
0.0514221	51.0496	4.71313e-05	0.0514526
0.068512	51.3914	6.28052e-05	0.0684509
0.0856018	51.7332	7.84607e-05	0.0855408
0.102692	52.075	9.41467e-05	0.10257
0.119781	52.4168	0.000109802	0.119659
0.136871	52.7586	0.000125458	0.136719
0.153961	53.1004	0.000141113	0.153717
0.171051	53.4422	0.000156769	0.170837
0.188141	53.784	0.000172455	0.187897
0.205231	54.1258	0.00018808	0.204865
0.222321	54.4675	0.000203766	0.221985
0.23941	54.8093	0.000219421	0.239014
0.2565	55.1511	0.000235107	0.255951
0.27359	55.4929	0.000250732	0.27301
0.29068	55.8347	0.000266418	0.2901
0.30777	56.1765	0.000282074	0.307098
0.32486	56.5183	0.00029776	0.324097
0.341949	56.8601	0.00031366	0.341766
0.359039	57.2019	0.000329346	0.358856
0.376129	57.5437	0.000345001	0.375854
0.393219	57.8855	0.000360687	0.392944
0.410309	58.2273	0.000376343	0.410004
0.427399	58.5691	0.000391998	0.427094
0.444489	58.9109	0.000407654	0.444153
0.461578	59.2527	0.00042334	0.461212
0.478668	59.5945	0.000438995	0.478333
0.495758	59.9363	0.000454681	0.495361
0.488434	60.2781	0.000447937	0.488037
0.471344	60.6199	0.000432281	0.470978
0.454254	60.9617	0.000416595	0.453949
0.437164	61.3035	0.00040094	0.436859
0.420074	61.6453	0.000385284	0.419769
0.402985	61.9871	0.000369629	0.40274
0.385895	62.3289	0.000353943	0.38562
0.368805	62.6707	0.000338257	0.36853
0.351715	63.0124	0.000322601	0.351471
0.334625	63.3542	0.000306946	0.334442
0.317535	63.696	0.00029126	0.317352
0.300446	64.0378	0.000275574	0.300262
0.283356	64.3796	0.000259888	0.283203
0.266266	64.7214	0.000244232	0.266144
0.249176	65.0632	0.000228577	0.249115
0.232086	65.405	0.000212891	0.231964
0.214996	65.7468	0.000197205	0.214935
0.197906	66.0886	0.000181549	0.197845
0.180817	66.4304	0.000165894	0.180756
0.163727	66.7722	0.000150208	0.163727
0.146637	67.114	0.000134552	0.146698
0.129547	67.4558	0.000118896	0.129578
0.112457	67.7976	0.000103241	0.112457
0.0953674	68.1394	8.74329e-05	0.0953064
0.0782776	68.4812	7.17468e-05	0.0782166
0.0611877	68.823	5.60913e-05	0.0611572
0.0440979	69.1648	4.04175e-05	0.0443573
0.0270081	69.5066	2.47681e-05	0.0272949
0.00991821	69.8484	9.10034e-06	0.0102234
-0.00717163	70.1902	-6.55823e-06	-0.00683899
-0.0242615	70.532	-2.2226e-05	-0.0238861
-0.0413513	70.8738	-3.78906e-05	-0.0409851
-0.0584412	71.2156	-5.35889e-05	-0.058075
-0.075531	71.5573	-6.92444e-05	-0.0751648
-0.0926208	71.8991	-8.49304e-05	-0.0922852
-0.109711	72.2409	-0.000100586	-0.109344
-0.126801	72.5827	-0.000116272	-0.126404
-0.14389	72.9245	-0.000131927	-0.143402
-0.16098	73.2663	-0.000147583	-0.160522
-0.17807	73.6081	-0.000163269	-0.177551
-0.19516	73.9499	-0.000178925	-0.194641
-0.21225	74.2917	-0.00019458	-0.211639
-0.22934	74.6335	-0.000210266	-0.228638
-0.246429	74.9753	-0.000225952	-0.245728
-0.263519	75.3171	-0.000241608	-0.262787
-0.280609	75.6589	-0.000257263	-0.279755
-0.297699	76.0007	-0.000272949	-0.296814
-0.314789	76.3425	-0.000288635	-0.313904
-0.331879	76.6843	-0.000304291	-0.331512
-0.348969	77.0261	-0.000319977	-0.348572
-0.366058	77.3679	-0.000335663	-0.365662
-0.383148	77.7097	-0.000351349	-0.38269
-0.400238	78.0515	-0.000367035	-0.399811
-0.417328	78.3933	-0.00038269	-0.416809
-0.434418	78.7351	-0.000398346	-0.433899
-0.451508	79.0769	-0.000414032	-0.45105
-0.468597	79.4187	-0.000429718	-0.46817
-0.485687	79.7605	-0.000445404	-0.485168
-0.497894	80.1022	-0.000456604	-0.497375
-0.480804	80.444	-0.000440918	-0.480347
-0.463715	80.7858	-0.000425232	-0.463257
-0.446625	81.1276	-0.000409546	-0.446167
-0.429535	81.4694	-0.00039389	-0.429047
-0.412445	81.8112	-0.000378204	-0.411987
-0.395355	82.153	-0.000362549	-0.394928
-0.378265	82.4948	-0.000346863	-0.377808
-0.361176	82.8366	-0.000331207	-0.360718
-0.344086	83.1784	-0.000315521	-0.343719
-0.326996	83.5202	-0.000299866	-0.326599
-0.309906	83.862	-0.000284149	-0.309509
-0.292816	84.2038	-0.000268463	-0.292419
-0.275726	84.5456	-0.000252777	-0.27536
-0.258636	84.8874	-0.000237122	-0.258331
-0.241547	85.2292	-0.000221436	-0.241211
-0.224457	85.571	-0.00020578	-0.224152
-0.207367	85.9128	-0.000190094	-0.207062
-0.190277	86.2546	-0.000174438	-0.190002
-0.173187	86.5964	-0.000158752	-0.172913
-0.156097	86.9382	-0.000143066	-0.155823
-0.139008	87.28	-0.00012738	-0.138702
-0.121918	87.6218	-0.000111725	-0.121643
-0.104828	87.9636	-9.60693e-05	-0.104614
-0.087738	88.3054	-8.04443e-05	-0.0873718
-0.0706482	88.6471	-6.47888e-05	-0.0703735
-0.0535583	88.9889	-4.90784e-05	-0.0532837
-0.0364685	89.3307	-3.34229e-05	-0.0361206
-0.0193787	89.6725	-1.77551e-05	-0.0190399
-0.00228882	90.0143	-2.08832e-06	-0.00195923
0.000152588	90.0632	1.50146e-07	0.000476074