File: Edgar/20230201 (1)/cv_data.txt
Potential applied (V)	Time (s)	WE(1).Current (A)	WE(1).Potential (V)
0.00259399	19.8592	-2.38037e-09	0.00287781
0.0196838	20.201	2.36816e-08	0.0199707
0.0367737	20.5428	3.30505e-08	0.0370087
0.0538635	20.8846	5.79224e-08	0.0538025
0.0709534	21.2264	6.97937e-08	0.0708313
0.0880432	21.5682	9.16748e-08	0.0879517
0.105133	21.91	1.03912e-07	0.105072
0.122223	22.2518	1.24939e-07	0.12207
0.139313	22.5936	1.39648e-07	0.13913
0.156403	22.9354	1.57379e-07	0.156128
0.173492	23.2772	1.73401e-07	0.173187
0.190582	23.619	1.89819e-07	0.190247
0.207672	23.9608	2.09595e-07	0.207275
0.224762	24.3026	2.21313e-07	0.224304
0.241852	24.6444	2.46552e-07	0.241333
0.258942	24.9862	2.54028e-07	0.258392
0.276031	25.328	2.79724e-07	0.275391
0.293121	25.6698	2.90009e-07	0.292419
0.310211	26.0116	3.07617e-07	0.309967
0.327301	26.3534	3.23486e-07	0.327087
0.344391	26.6952	3.41492e-07	0.344147
0.361481	27.037	3.58582e-07	0.361176
0.378571	27.3788	3.77197e-07	0.378296
0.39566	27.7206	3.93372e-07	0.395386
0.41275	28.0624	4.12292e-07	0.412445
0.42984	28.4041	4.27246e-07	0.429504
0.44693	28.7459	4.47388e-07	0.446533
0.46402	29.0877	4.62036e-07	0.463623
0.48111	29.4295	4.82483e-07	0.480804
0.498199	29.7713	4.97131e-07	0.497894
0.485992	30.1131	4.84314e-07	0.485596
0.468903	30.4549	4.69971e-07	0.468536
0.451813	30.7967	4.45251e-07	0.451385
0.434723	31.1385	4.37012e-07	0.434448
0.417633	31.4803	4.10156e-07	0.417358
0.400543	31.8221	4.02527e-07	0.400269
0.383453	32.1639	3.77197e-07	0.383118
0.366364	32.5057	3.67126e-07	0.36615
0.349274	32.8475	3.43018e-07	0.34906
0.332184	33.1893	3.302e-07	0.332001
0.315094	33.5311	3.10669e-07	0.31488
0.298004	33.8729	2.94495e-07	0.297821
0.280914	34.2147	2.76794e-07	0.280792
0.263824	34.5565	2.59705e-07	0.263702
0.246735	34.8983	2.45361e-07	0.246613
0.229645	35.2401	2.23694e-07	0.229492
0.212555	35.5819	2.15302e-07	0.212524
0.195465	35.9237	1.88538e-07	0.195343
0.178375	36.2655	1.8338e-07	0.178314
0.161285	36.6073	1.57806e-07	0.161285
0.144196	36.949	1.45386e-07	0.144226
0.127106	37.2908	1.25244e-07	0.127197
0.110016	37.6326	1.10748e-07	0.110046
0.092926	37.9744	9.15527e-08	0.0930176
0.0758362	38.3162	7.74536e-08	0.0757141
0.0587463	38.658	5.92651e-08	0.0587463
0.0416565	38.9998	4.23584e-08	0.0418884
0.0245667	39.3416	2.4231e-08	0.0248291
0.00747681	39.6834	7.26318e-09	0.00783081
-0.00961304	40.0252	-1.02234e-08	-0.00930481
-0.0267029	40.367	-2.54517e-08	-0.0263672
-0.0437927	40.7088	-4.44336e-08	-0.043454
-0.0608826	41.0506	-6.11267e-08	-0.0605469
-0.0779724	41.3924	-7.96204e-08	-0.0776367
-0.0950623	41.7342	-9.49402e-08	-0.0946655
-0.112152	42.076	-1.14258e-07	-0.111786
-0.129242	42.4178	-1.29303e-07	-0.128815
-0.146332	42.7596	-1.48041e-07	-0.145874
-0.163422	43.1014	-1.65375e-07	-0.162903
-0.180511	43.4432	-1.79535e-07	-0.179993
-0.197601	43.785	-1.98273e-07	-0.196991
-0.214691	44.1268	-2.15607e-07	-0.213959
-0.231781	44.4686	-2.2879e-07	-0.231079
-0.248871	44.8104	-2.52838e-07	-0.248047
-0.265961	45.1522	-2.60895e-07	-0.265137
-0.283051	45.4939	-2.87598e-07	-0.282196
-0.30014	45.8357	-2.92664e-07	-0.299713
-0.31723	46.1775	-3.19519e-07	-0.316895
-0.33432	46.5193	-3.29895e-07	-0.333954
-0.35141	46.8611	-3.52173e-07	-0.351074
-0.3685	47.2029	-3.66211e-07	-0.368073
-0.38559	47.5447	-3.8208e-07	-0.385162
-0.402679	47.8865	-4.03137e-07	-0.402252
-0.419769	48.2283	-4.13513e-07	-0.419373
-0.436859	48.5701	-4.39758e-07	-0.436401
-0.453949	48.9119	-4.50745e-07	-0.453491
-0.471039	49.2537	-4.73633e-07	-0.470551
-0.488129	49.5955	-4.87061e-07	-0.487671
-0.495453	49.9373	-4.98352e-07	-0.494965
-0.478363	50.2791	-4.77295e-07	-0.477875
-0.461273	50.6209	-4.62646e-07	-0.460846
-0.444183	50.9627	-4.39453e-07	-0.443787
-0.427094	51.3045	-4.29382e-07	-0.426636
-0.410004	51.6463	-4.03442e-07	-0.409576
-0.392914	51.9881	-3.94287e-07	-0.392548
-0.375824	52.3299	-3.71399e-07	-0.375427
-0.358734	52.6717	-3.58887e-07	-0.358337
-0.341644	53.0135	-3.37524e-07	-0.341278
-0.324554	53.3553	-3.22571e-07	-0.324158
-0.307465	53.6971	-3.03955e-07	-0.307068
-0.290375	54.0388	-2.8717e-07	-0.289917
-0.273285	54.3806	-2.70996e-07	-0.272919
-0.256195	54.7224	-2.54517e-07	-0.255798
-0.239105	55.0642	-2.39807e-07	-0.23877
-0.222015	55.406	-2.1759e-07	-0.22168
-0.204926	55.7478	-2.07947e-07	-0.20462
-0.187836	56.0896	-1.80969e-07	-0.1875
-0.170746	56.4314	-1.74866e-07	-0.170502
-0.153656	56.7732	-1.48224e-07	-0.153381
-0.136566	57.115	-1.39221e-07	-0.136292
-0.119476	57.4568	-1.16547e-07	-0.119232
-0.102386	57.7986	-1.01501e-07	-0.102173
-0.0852966	58.1404	-8.57849e-08	-0.0851746
-0.0682068	58.4822	-6.88477e-08	-0.0679321
-0.0511169	58.824	-5.12695e-08	-0.0508728
-0.0340271	59.1658	-3.36609e-08	-0.0337189
-0.0169373	59.5076	-1.68457e-08	-0.0166565
0.000152588	59.8494	2.74658e-10	0.000473022
0.0172424	60.1912	1.77917e-08	0.0175079
0.0343323	60.533	3.33862e-08	0.0345978
0.0514221	60.8748	5.33447e-08	0.0513916
0.068512	61.2166	6.97632e-08	0.0684814
0.0856018	61.5584	8.77991e-08	0.0855408
0.102692	61.9002	1.03058e-07	0.1026
0.119781	62.242	1.2207e-07	0.119537
0.136871	62.5837	1.3623e-07	0.13678
0.153961	62.9255	1.56097e-07	0.153595
0.171051	63.2673	1.68793e-07	0.170898
0.188141	63.6091	1.90033e-07	0.1875
0.205231	63.9509	2.01111e-07	0.204956
0.222321	64.2927	2.27173e-07	0.222015
0.23941	64.6345	2.34161e-07	0.238586
0.2565	64.9763	2.6062e-07	0.256165
0.27359	65.3181	2.69257e-07	0.272614
0.29068	65.6599	2.9364e-07	0.290192
0.30777	66.0017	3.01514e-07	0.307587
0.32486	66.3435	3.25317e-07	0.324707
0.341949	66.6853	3.36609e-07	0.341705
0.359039	67.0271	3.58582e-07	0.358826
0.376129	67.3689	3.71704e-07	0.375854
0.393219	67.7107	3.93982e-07	0.392944
0.410309	68.0525	4.04663e-07	0.410034
0.427399	68.3943	4.28467e-07	0.427063
0.444489	68.7361	4.39758e-07	0.444153
0.461578	69.0779	4.62036e-07	0.461243
0.478668	69.4197	4.7699e-07	0.478271
0.495758	69.7615	4.95605e-07	0.495392
0.488434	70.1033	4.88892e-07	0.488037
0.471344	70.4451	4.68445e-07	0.470978
0.454254	70.7869	4.55322e-07	0.453888
0.437164	71.1286	4.31519e-07	0.43689
0.420074	71.4704	4.20837e-07	0.419739
0.402985	71.8122	3.96729e-07	0.40271
0.385895	72.154	3.87878e-07	0.38562
0.368805	72.4958	3.62549e-07	0.368561
0.351715	72.8376	3.51257e-07	0.35144
0.334625	73.1794	3.28979e-07	0.334442
0.317535	73.5212	3.16772e-07	0.317291
0.300446	73.863	2.92969e-07	0.300262
0.283356	74.2048	2.83813e-07	0.283173
0.266266	74.5466	2.6001e-07	0.266144
0.249176	74.8884	2.50854e-07	0.249084
0.232086	75.2302	2.24609e-07	0.231995
0.214996	75.572	2.18811e-07	0.214935
0.197906	75.9138	1.93024e-07	0.197784
0.180817	76.2556	1.81885e-07	0.180786
0.163727	76.5974	1.60553e-07	0.163635
0.146637	76.9392	1.49017e-07	0.146698
0.129547	77.281	1.27258e-07	0.129578
0.112457	77.6228	1.15143e-07	0.112518
0.0953674	77.9646	9.26208e-08	0.0954285
0.0782776	78.3064	8.00476e-08	0.0783997
0.0611877	78.6482	6.20728e-08	0.0610046
0.0440979	78.99	4.60815e-08	0.0444
0.0270081	79.3318	2.59094e-08	0.0272278
0.00991821	79.6735	9.97925e-09	0.010321
-0.00717163	80.0153	-6.98853e-09	-0.00698853
-0.0242615	80.3571	-2.63367e-08	-0.0239075
-0.0413513	80.6989	-4.13818e-08	-0.0409668
-0.0584412	81.0407	-6.08521e-08	-0.0582581
-0.075531	81.3825	-7.71179e-08	-0.0751343
-0.0926208	81.7243	-9.48792e-08	-0.0922852
-0.109711	82.0661	-1.10901e-07	-0.109344
-0.126801	82.4079	-1.29944e-07	-0.126404
-0.14389	82.7497	-1.44135e-07	-0.143433
-0.16098	83.0915	-1.64185e-07	-0.1604
-0.17807	83.4333	-1.76697e-07	-0.177582
-0.19516	83.7751	-1.96808e-07	-0.19458
-0.21225	84.1169	-2.10266e-07	-0.211578
-0.22934	84.4587	-2.31598e-07	-0.228668
-0.246429	84.8005	-2.44659e-07	-0.245667
-0.263519	85.1423	-2.65686e-07	-0.262726
-0.280609	85.4841	-2.77618e-07	-0.279755
-0.297699	85.8259	-3.01605e-07	-0.296783
-0.314789	86.1677	-3.09753e-07	-0.314484
-0.331879	86.5095	-3.31421e-07	-0.331512
-0.348969	86.8513	-3.41797e-07	-0.348602
-0.366058	87.1931	-3.66516e-07	-0.365692
-0.383148	87.5349	-3.75671e-07	-0.38266
-0.400238	87.8767	-4.03137e-07	-0.399841
-0.417328	88.2184	-4.11377e-07	-0.41687
-0.434418	88.5602	-4.36707e-07	-0.43396
-0.451508	88.902	-4.48914e-07	-0.451111
-0.468597	89.2438	-4.70581e-07	-0.468201
-0.485687	89.5856	-4.87061e-07	-0.485199
-0.497894	89.9274	-5.00183e-07	-0.497406
-0.480804	90.2692	-4.80957e-07	-0.480286
-0.463715	90.611	-4.63562e-07	-0.463287
-0.446625	90.9528	-4.44946e-07	-0.446136
-0.429535	91.2946	-4.296875E-07	-0.429138
-0.412445	91.6364	-4.0802e-07	-0.411987
-0.395355	91.9782	-3.95203e-07	-0.394928
-0.378265	92.32	-3.74756e-07	-0.377869
-0.361176	92.6618	-3.60107e-07	-0.360809
-0.344086	93.0036	-3.41492e-07	-0.343781
-0.326996	93.3454	-3.2196e-07	-0.32666
-0.309906	93.6872	-3.08533e-07	-0.30954
-0.292816	94.029	-2.85645e-07	-0.292419
-0.275726	94.3708	-2.78625e-07	-0.275391
-0.258636	94.7126	-2.51465e-07	-0.25827
-0.241547	95.0544	-2.44446e-07	-0.241241
-0.224457	95.3962	-2.19116e-07	-0.224152
-0.207367	95.738	-2.0752e-07	-0.207062
-0.190277	96.0798	-1.88599e-07	-0.189941
-0.173187	96.4216	-1.69983e-07	-0.172852
-0.156097	96.7633	-1.59454e-07	-0.155823
-0.139008	97.1051	-1.32477e-07	-0.138733
-0.121918	97.4469	-1.25793e-07	-0.121704
-0.104828	97.7887	-1.03119e-07	-0.104584
-0.087738	98.1305	-8.82874e-08	-0.0875244
-0.0706482	98.4723	-7.04651e-08	-0.0703735
-0.0535583	98.8141	-5.3894e-08	-0.0533142
-0.0364685	99.1559	-3.54004e-08	-0.0361084
-0.0193787	99.4977	-1.9104e-08	-0.019046
-0.00228882	99.8395	-2.16675e-09	-0.00198669
0.000152588	99.8883	1.77002e-09	0.000515747