File: Edgar/20230201 (1)/cv_data_b.txt
Potential applied (V)	Time (s)	WE(1).Current (A)	WE(1).Potential (V)
0.00259399	16.0112	2.39288e-06	0.00292664
0.0196838	16.353	1.80511e-05	0.0199677
0.0367737	16.6948	3.37219e-05	0.0370422
0.0538635	17.0366	4.93744e-05	0.053894
0.0709534	17.3784	6.5033e-05	0.0708618
0.0880432	17.7202	8.0719e-05	0.0879517
0.105133	18.062	9.63745e-05	0.105011
0.122223	18.4038	0.00011203	0.12207
0.139313	18.7456	0.000127686	0.13916
0.156403	19.0874	0.000143341	0.156189
0.173492	19.4292	0.000159027	0.173218
0.190582	19.771	0.000174683	0.190247
0.207672	20.1128	0.000190338	0.207306
0.224762	20.4546	0.000205994	0.224365
0.241852	20.7964	0.00022168	0.241455
0.258942	21.1382	0.000237335	0.258423
0.276031	21.4799	0.000252991	0.275421
0.293121	21.8217	0.000268646	0.292511
0.310211	22.1635	0.000284302	0.309479
0.327301	22.5053	0.000300018	0.326569
0.344391	22.8471	0.000315918	0.344177
0.361481	23.1889	0.000331573	0.361237
0.378571	23.5307	0.00034726	0.378265
0.39566	23.8725	0.000362915	0.395447
0.41275	24.2143	0.000378571	0.412476
0.42984	24.5561	0.000394257	0.429565
0.44693	24.8979	0.000409912	0.446533
0.46402	25.2397	0.000425568	0.463623
0.48111	25.5815	0.000441223	0.480713
0.498199	25.9233	0.000456909	0.497864
0.485992	26.2651	0.000445709	0.485657
0.468903	26.6069	0.000430054	0.468567
0.451813	26.9487	0.000414368	0.451508
0.434723	27.2905	0.000398712	0.434387
0.417633	27.6323	0.000383057	0.417358
0.400543	27.9741	0.000367371	0.400299
0.383453	28.3159	0.000351715	0.383179
0.366364	28.6577	0.000336029	0.36615
0.349274	28.9995	0.000320374	0.34906
0.332184	29.3413	0.0003046875	0.332001
0.315094	29.6831	0.000289032	0.314941
0.298004	30.0248	0.000273315	0.297821
0.280914	30.3666	0.00025766	0.280731
0.263824	30.7084	0.000242004	0.263641
0.246735	31.0502	0.000226318	0.246643
0.229645	31.392	0.000210663	0.229523
0.212555	31.7338	0.000195007	0.212494
0.195465	32.0756	0.000179321	0.195435
0.178375	32.4174	0.000163666	0.178345
0.161285	32.7592	0.00014798	0.161224
0.144196	33.101	0.000132324	0.144226
0.127106	33.4428	0.000116669	0.127136
0.110016	33.7846	0.000100983	0.110138
0.092926	34.1264	8.52051e-05	0.092865
0.0758362	34.4682	6.9519e-05	0.0757751
0.0587463	34.81	5.38635e-05	0.0587463
0.0416565	35.1518	3.81836e-05	0.0419159
0.0245667	35.4936	2.25342e-05	0.0248596
0.00747681	35.8354	6.86646e-06	0.00777283
-0.00961304	36.1772	-8.79822e-06	-0.0092804
-0.0267029	36.519	-2.44629e-05	-0.0263306
-0.0437927	36.8608	-4.01276e-05	-0.0434265
-0.0608826	37.2026	-5.58167e-05	-0.0605774
-0.0779724	37.5444	-7.15027e-05	-0.0776367
-0.0950623	37.8862	-8.71582e-05	-0.0947571
-0.112152	38.228	-0.000102844	-0.111816
-0.129242	38.5697	-0.0001185	-0.128815
-0.146332	38.9115	-0.000134155	-0.145874
-0.163422	39.2533	-0.000149811	-0.162933
-0.180511	39.5951	-0.000165497	-0.179993
-0.197601	39.9369	-0.000181152	-0.196991
-0.214691	40.2787	-0.000196838	-0.214111
-0.231781	40.6205	-0.000212494	-0.23111
-0.248871	40.9623	-0.00022818	-0.248169
-0.265961	41.3041	-0.000243835	-0.265198
-0.283051	41.6459	-0.000259491	-0.282196
-0.30014	41.9877	-0.000275177	-0.299286
-0.31723	42.3295	-0.000290863	-0.316406
-0.33432	42.6713	-0.000306549	-0.333954
-0.35141	43.0131	-0.000322235	-0.351044
-0.3685	43.3549	-0.000337891	-0.368103
-0.38559	43.6967	-0.000353577	-0.385193
-0.402679	44.0385	-0.000369263	-0.402222
-0.419769	44.3803	-0.000384918	-0.419342
-0.436859	44.7221	-0.000400604	-0.436401
-0.453949	45.0639	-0.00041629	-0.453491
-0.471039	45.4057	-0.000431976	-0.470612
-0.488129	45.7475	-0.000447632	-0.48764
-0.495453	46.0893	-0.000454376	-0.494904
-0.478363	46.4311	-0.00043869	-0.477875
-0.461273	46.7729	-0.000423004	-0.460815
-0.444183	47.1146	-0.000407318	-0.443726
-0.427094	47.4564	-0.000391663	-0.426605
-0.410004	47.7982	-0.000375977	-0.409607
-0.392914	48.14	-0.000360321	-0.392456
-0.375824	48.4818	-0.000344635	-0.375397
-0.358734	48.8236	-0.000328949	-0.358307
-0.341644	49.1654	-0.000313293	-0.341278
-0.324554	49.5072	-0.000297607	-0.324158
-0.307465	49.849	-0.000281921	-0.307068
-0.290375	50.1908	-0.000266235	-0.290009
-0.273285	50.5326	-0.000250549	-0.272949
-0.256195	50.8744	-0.000234894	-0.25589
-0.239105	51.2162	-0.000219208	-0.238739
-0.222015	51.558	-0.000203522	-0.221649
-0.204926	51.8998	-0.000187836	-0.20459
-0.187836	52.2416	-0.00017218	-0.1875
-0.170746	52.5834	-0.000156525	-0.170471
-0.153656	52.9252	-0.000140839	-0.153442
-0.136566	53.267	-0.000125153	-0.136292
-0.119476	53.6088	-0.000109497	-0.119202
-0.102386	53.9506	-9.38416e-05	-0.102173
-0.0852966	54.2924	-7.82166e-05	-0.085022
-0.0682068	54.6342	-6.25305e-05	-0.0679321
-0.0511169	54.976	-4.68414e-05	-0.0508118
-0.0340271	55.3178	-3.1189e-05	-0.0336884
-0.0169373	55.6595	-1.55151e-05	-0.0166107
0.000152588	56.0013	1.44043e-07	0.000479126
0.0172424	56.3431	1.58142e-05	0.017514
0.0343323	56.6849	3.14758e-05	0.0345764
0.0514221	57.0267	4.71313e-05	0.0514221
0.068512	57.3685	6.28052e-05	0.0684814
0.0856018	57.7103	7.84607e-05	0.0854797
0.102692	58.0521	9.41467e-05	0.10257
0.119781	58.3939	0.000109802	0.119629
0.136871	58.7357	0.000125458	0.136688
0.153961	59.0775	0.000141113	0.153778
0.171051	59.4193	0.000156769	0.170807
0.188141	59.7611	0.000172455	0.187836
0.205231	60.1029	0.00018811	0.204895
0.222321	60.4447	0.000203766	0.221954
0.23941	60.7865	0.000219421	0.238983
0.2565	61.1283	0.000235107	0.255951
0.27359	61.4701	0.000250732	0.272919
0.29068	61.8119	0.000266418	0.29007
0.30777	62.1537	0.000282074	0.307129
0.32486	62.4955	0.00029776	0.324158
0.341949	62.8373	0.00031369	0.341736
0.359039	63.1791	0.000329346	0.358826
0.376129	63.5209	0.000345001	0.375824
0.393219	63.8627	0.000360687	0.392975
0.410309	64.2044	0.000376343	0.410034
0.427399	64.5462	0.000392029	0.427124
0.444489	64.888	0.000407654	0.444153
0.461578	65.2298	0.00042334	0.461273
0.478668	65.5716	0.000438995	0.478363
0.495758	65.9134	0.000454681	0.495422
0.488434	66.2552	0.000447968	0.488068
0.471344	66.597	0.000432281	0.470978
0.454254	66.9388	0.000416626	0.453949
0.437164	67.2806	0.00040094	0.436829
0.420074	67.6224	0.000385284	0.4198
0.402985	67.9642	0.000369629	0.40271
0.385895	68.306	0.000353943	0.385651
0.368805	68.6478	0.000338287	0.368591
0.351715	68.9896	0.000322601	0.351471
0.334625	69.3314	0.000306946	0.334412
0.317535	69.6732	0.00029126	0.317352
0.300446	70.015	0.000275574	0.300201
0.283356	70.3568	0.000259888	0.283142
0.266266	70.6986	0.000244232	0.266083
0.249176	71.0404	0.000228577	0.249054
0.232086	71.3822	0.000212891	0.231995
0.214996	71.724	0.000197205	0.214905
0.197906	72.0658	0.000181549	0.197845
0.180817	72.4076	0.000165894	0.180786
0.163727	72.7493	0.000150208	0.163727
0.146637	73.0911	0.000134552	0.146637
0.129547	73.4329	0.000118866	0.129608
0.112457	73.7747	0.00010321	0.112518
0.0953674	74.1165	8.74329e-05	0.0953064
0.0782776	74.4583	7.17468e-05	0.0782471
0.0611877	74.8001	5.60913e-05	0.0611267
0.0440979	75.1419	4.04175e-05	0.0443481
0.0270081	75.4837	2.4765e-05	0.0272888
0.00991821	75.8255	9.10034e-06	0.0102142
-0.00717163	76.1673	-6.56738e-06	-0.00685425
-0.0242615	76.5091	-2.2229e-05	-0.0238861
-0.0413513	76.8509	-3.78937e-05	-0.0410126
-0.0584412	77.1927	-5.35889e-05	-0.058197
-0.075531	77.5345	-6.92444e-05	-0.0752258
-0.0926208	77.8763	-8.49304e-05	-0.0922546
-0.109711	78.2181	-0.000100616	-0.109406
-0.126801	78.5599	-0.000116272	-0.126373
-0.14389	78.9017	-0.000131927	-0.143494
-0.16098	79.2435	-0.000147614	-0.160522
-0.17807	79.5853	-0.000163269	-0.177582
-0.19516	79.9271	-0.000178955	-0.19458
-0.21225	80.2689	-0.000194611	-0.21167
-0.22934	80.6107	-0.000210266	-0.228729
-0.246429	80.9525	-0.000225952	-0.245697
-0.263519	81.2942	-0.000241608	-0.262787
-0.280609	81.636	-0.000257263	-0.279755
-0.297699	81.9778	-0.000272949	-0.296814
-0.314789	82.3196	-0.000288635	-0.313934
-0.331879	82.6614	-0.000304291	-0.331482
-0.348969	83.0032	-0.000320007	-0.348572
-0.366058	83.345	-0.000335663	-0.365631
-0.383148	83.6868	-0.000351349	-0.382721
-0.400238	84.0286	-0.000367035	-0.399841
-0.417328	84.3704	-0.00038269	-0.41687
-0.434418	84.7122	-0.000398376	-0.43396
-0.451508	85.054	-0.0004140625	-0.451111
-0.468597	85.3958	-0.000429718	-0.46814
-0.485687	85.7376	-0.000445404	-0.485199
-0.497894	86.0794	-0.000456604	-0.497406
-0.480804	86.4212	-0.000440918	-0.480316
-0.463715	86.763	-0.000425262	-0.463257
-0.446625	87.1048	-0.000409576	-0.446167
-0.429535	87.4466	-0.000393921	-0.429077
-0.412445	87.7884	-0.000378235	-0.411987
-0.395355	88.1302	-0.000362549	-0.394989
-0.378265	88.472	-0.000346863	-0.377869
-0.361176	88.8138	-0.000331207	-0.36084
-0.344086	89.1556	-0.000315552	-0.343719
-0.326996	89.4974	-0.000299866	-0.326599
-0.309906	89.8391	-0.000284149	-0.309509
-0.292816	90.1809	-0.000268463	-0.292419
-0.275726	90.5227	-0.000252808	-0.27533
-0.258636	90.8645	-0.000237122	-0.25824
-0.241547	91.2063	-0.000221466	-0.241241
-0.224457	91.5481	-0.00020578	-0.224121
-0.207367	91.8899	-0.000190094	-0.207031
-0.190277	92.2317	-0.000174438	-0.189941
-0.173187	92.5735	-0.000158752	-0.172913
-0.156097	92.9153	-0.000143097	-0.155884
-0.139008	93.2571	-0.00012738	-0.138733
-0.121918	93.5989	-0.000111725	-0.121704
-0.104828	93.9407	-9.60693e-05	-0.104614
-0.087738	94.2825	-8.04443e-05	-0.0874634
-0.0706482	94.6243	-6.47888e-05	-0.070343
-0.0535583	94.9661	-4.90875e-05	-0.0532837
-0.0364685	95.3079	-3.3429e-05	-0.0361328
-0.0193787	95.6497	-1.77612e-05	-0.0190491
-0.00228882	95.9915	-2.0932e-06	-0.00198059
0.000152588	96.0403	1.43738e-07	0.000473022