File: Edgar/20230201 (1)/impedance.txt
Time (s)	Frequency (Hz)	Z' (Ω)	-Z'' (Ω)	Z (Ω)	-Phase (°)
114.667	50000	100.312	3.82754	100.385	2.18513
117.413	39520	100.282	4.5937	100.387	2.62276
120.324	31237	100.292	5.61617	100.449	3.20513
123.6	24690	100.281	6.93837	100.52	3.95796
127.121	19515	100.348	8.65101	100.721	4.92727
131.002	15425	100.354	10.8327	100.937	6.16089
135.223	12192	100.404	13.6103	101.322	7.71974
140.01	9636.3	100.428	17.1365	101.88	9.68337
145.556	7616.5	100.451	21.6102	102.749	12.1411
151.647	6020.1	100.482	27.2714	104.118	15.1846
157.613	4758.3	100.539	34.4477	106.277	18.913
163.669	3761	100.528	43.4923	109.533	23.3952
169.685	2972.7	100.592	54.9708	114.633	28.6553
175.771	2349.6	100.617	69.4686	122.269	34.6222
181.797	1857.2	100.703	87.8395	133.63	41.0969
187.878	1467.9	100.788	111.058	149.974	47.7752
193.85	1160.2	100.841	140.392	172.855	54.3109
199.896	917.05	100.941	177.51	204.203	60.3752
206.077	724.84	101.049	224.461	246.157	65.7634
212.223	572.92	101.239	283.972	301.478	70.3783
223.575	452.83	101.493	359.224	373.286	74.2231
229.566	357.92	101.711	454.192	465.441	77.3776
240.663	282.9	101.981	574.447	583.429	79.9333
246.31	223.61	102.366	726.507	733.683	81.9797
251.891	176.74	102.857	918.398	924.14	83.6097
257.662	139.7	103.686	1161.89	1166.51	84.9005
263.348	110.42	104.81	1469.66	1473.39	85.9208
269.309	87.273	106.516	1859.18	1862.23	86.721
274.675	68.981	108.943	2351.36	2353.89	87.3473
284.492	54.523	112.826	2978.11	2980.25	87.8304
289.168	43.095	118.768	3767.6	3769.47	88.1944
294.619	34.062	128.989	4765.02	4766.77	88.4494
300.961	26.923	144.515	6029.74	6031.47	88.627
305.942	21.28	167.439	7621.57	7623.41	88.7415
311.643	16.82	203.651	9633.2	9635.36	88.7889
318.294	13.294	263.555	12192.9	12195.7	88.7617
323.83	10.508	358.882	15429	15433.2	88.6675
329.911	8.3055	499.261	19489.6	19496	88.5326
336.887	6.5647	741.405	24672.5	24683.6	88.2788
351.295	5.1887	1108.56	31225.7	31245.3	87.9668
357.267	4.1012	1694.87	39481.1	39517.5	87.5419
364.333	3.2416	2646.75	49909.7	49979.8	86.9644
369.974	2.5622	4142.2	63001.2	63137.2	86.2383
376.155	2.0251	6534.55	79541.5	79809.5	85.3035
383.206	1.6007	10356.5	100237	100770	84.1011
388.852	1.2652	16311.5	125996	127048	82.6235
400.804	1	25716.9	157655	159739	80.7354