File: Edgar/20230201 (1)/impedance(1).txt
Time (s)	Frequency (Hz)	Z' (Ω)	-Z'' (Ω)	Z (Ω)	-Phase (°)
107.668	50000	100.143	3.84256	100.217	2.1974
110.204	39520	100.135	4.63248	100.242	2.64874
113.585	31237	100.186	5.66039	100.346	3.2337
116.601	24690	100.216	7.01	100.461	4.00125
119.942	19515	100.237	8.72761	100.616	4.97617
123.628	15425	100.344	10.9435	100.939	6.22405
127.729	12192	100.416	13.751	101.353	7.79762
132.325	9636.3	100.574	17.3117	102.053	9.76657
137.726	7616.5	100.696	21.809	103.03	12.2205
143.738	6020.1	101.046	27.5222	104.727	15.2362
149.529	4758.3	101.539	34.7359	107.316	18.8855
155.345	3761	102.347	43.8666	111.352	23.2003
161.241	2972.7	103.529	55.3485	117.395	28.1299
167.092	2349.6	105.404	69.8087	126.425	33.5163
172.923	1857.2	108.414	87.9912	139.629	39.0634
178.874	1467.9	113.134	110.717	158.296	44.3814
184.71	1160.2	120.506	138.866	183.862	49.049
190.581	917.05	132.155	173.527	218.121	52.7077
196.403	724.84	150.035	215.28	262.404	55.1261
202.184	572.92	177.337	264.327	318.303	56.1422
213.466	452.83	217.915	319.517	386.753	55.7055
219.552	357.92	275.668	377.361	467.326	53.8513
225.658	282.9	353.679	431.658	558.048	50.6706
231.319	223.61	451.471	473.479	654.223	46.363
236.92	176.74	563.508	494.156	749.488	41.2484
242.611	139.7	679.001	488.362	836.384	35.725
248.433	110.42	785.864	457.52	909.344	30.2074
254.039	87.273	875.522	409.058	966.368	25.0428
259.11	68.981	944.442	352.243	1007.99	20.4537
265.011	54.523	994.341	294.944	1037.16	16.5215
269.662	43.095	1029.08	242.181	1057.2	13.2428
275.018	34.062	1050.99	196.015	1069.11	10.5646
281.184	26.923	1066.68	157.383	1078.23	8.39313
286.275	21.28	1075.83	125.752	1083.15	6.66698
292.036	16.82	1081.63	99.9839	1086.24	5.28129
298.542	13.294	1085.07	79.3114	1087.96	4.18052
303.879	10.508	1087.85	62.8779	1089.67	3.30803
309.96	8.3055	1089.63	49.7989	1090.77	2.61674
316.946	6.5647	1090.25	39.39	1090.97	2.06915
322.457	5.1887	1091.17	31.17	1091.62	1.63624
328.563	4.1012	1091.6	24.614	1091.87	1.29172
335.454	3.2416	1091.55	19.4663	1091.73	1.02168
341	2.5622	1091.77	15.3401	1091.87	0.804993
347.181	2.0251	1092.26	12.1706	1092.32	0.638398
354.152	1.6007	1091.96	9.62931	1092	0.505242
359.734	1.2652	1091.74	7.61965	1091.77	0.39988
366.205	1	1092.32	6.20884	1092.34	0.325669