File: Edgar/20230201 (1)/impedance(2).txt
Time (s)	Frequency (Hz)	Z' (Ω)	-Z'' (Ω)	Z (Ω)	-Phase (°)
107.188	50000	100.149	3.85085	100.223	2.202
109.629	39520	100.157	4.62362	100.263	2.64312
112.305	31237	100.188	5.66618	100.348	3.23695
115.241	24690	100.231	7.00573	100.476	3.99823
118.417	19515	100.237	8.73205	100.617	4.97868
121.978	15425	100.31	10.9389	100.905	6.22354
126.019	12192	100.432	13.7483	101.369	7.79485
130.555	9636.3	100.553	17.3132	102.033	9.76938
135.741	7616.5	100.726	21.8111	103.06	12.2182
141.548	6020.1	101.062	27.5278	104.744	15.2368
147.234	4758.3	101.564	34.7443	107.343	18.8854
152.92	3761	102.344	43.8604	111.347	23.1979
158.671	2972.7	103.542	55.3562	117.41	28.1302
164.417	2349.6	105.419	69.8149	126.441	33.515
170.213	1857.2	108.38	87.966	139.586	39.0644
175.999	1467.9	113.141	110.717	158.301	44.3796
181.68	1160.2	120.487	138.84	183.831	49.0483
187.351	917.05	132.144	173.549	218.131	52.7136
192.957	724.84	150.059	215.289	262.425	55.123
198.599	572.92	177.32	264.326	318.293	56.1448
209.431	452.83	217.924	319.559	386.793	55.7078
215.037	357.92	275.699	377.418	467.391	53.8524
220.823	282.9	353.736	431.768	558.169	50.6732
226.219	223.61	451.375	473.434	654.125	46.3664
231.51	176.74	563.562	494.199	749.557	41.2482
236.951	139.7	679.021	488.409	836.428	35.7268
242.547	110.42	785.684	457.392	909.124	30.2061
247.913	87.273	875.842	409.304	966.762	25.0479
252.75	68.981	944.48	352.27	1008.04	20.4544
258.401	54.523	994.213	294.949	1037.04	16.5238
262.722	43.095	1028.77	242.184	1056.89	13.2469
267.698	34.062	1051.8	196.152	1069.93	10.5638
273.644	26.923	1066.68	157.425	1078.24	8.39532
278.39	21.28	1075.89	125.726	1083.21	6.66526
283.876	16.82	1081.95	100.047	1086.57	5.28305
290.212	13.294	1085.76	79.4038	1088.66	4.18271
295.483	10.508	1087.53	62.803	1089.34	3.30506
301.359	8.3055	1089.58	49.8081	1090.72	2.61734
311.947	6.5647	1090.51	39.3609	1091.22	2.06714
317.148	5.1887	1090.94	31.2194	1091.39	1.63918
323.134	4.1012	1091.46	24.6419	1091.74	1.29334
329.94	3.2416	1091.38	19.483	1091.56	1.02271
335.316	2.5622	1091.92	15.4181	1092.03	0.808968
341.337	2.0251	1092.05	12.1756	1092.12	0.63878
348.183	1.6007	1091.82	9.60917	1091.86	0.504251
353.554	1.2652	1091.91	7.6251	1091.94	0.400104
359.831	1	1092.11	6.12954	1092.13	0.321572