File: Edgar/20230201 (1)/OCP_1_d.txt
Time (s)	WE(1).Potential (V)
1.79822	0.00015564
1.89822	0.000158691
1.99822	0.00015564
2.09822	0.00015564
2.19822	0.00015564
2.29822	0.00015564
2.39822	0.00015564
2.49822	0.00015564
2.59822	0.00015564
2.69822	0.00015564
2.79822	0.00015564
2.89822	0.00015564
2.99822	0.00015564