File: Edgar/20230201 (1)/OCP_1_b.txt
Time (s)	WE(1).Potential (V)
8.19087	0.00015564
8.29087	0.00015564
8.39087	0.00015564
8.49087	0.00015564
8.59087	0.00015564
8.69087	0.00015564
8.79087	0.00015564
8.89087	0.00015564
8.99087	0.00015564