File: Edgar/20230201 (1)/OCP_1_c.txt
Time (s)	WE(1).Potential (V)
7.91934	0.00015564
8.01934	0.00015564
8.11934	0.00015564
8.21934	0.00015564
8.31934	0.00015564
8.41934	0.00015564
8.51934	0.00015564
8.61934	0.00015564
8.71934	0.00015564