File: Edgar/20230626/20230626/electrodeposition_prussian_blue/voltametry_sample_D/CV_2
Time (s)	WE(1).Potential (V)	WE(1).Current (A)
72.3617	0.477051	8.32825e-06
74.9252	0.527191	5.28564e-05
77.4886	0.578796	6.10352e-05
80.0521	0.625061	6.31409e-05
82.6156	0.574463	3.50616e-05
85.1791	0.522705	6.12183e-06
87.7425	0.471741	-6.46362e-05
90.306	0.421204	-0.000206879
92.8695	0.369202	-0.000408356
95.4329	0.318115	-0.000656738
97.9964	0.266388	-0.00102478
100.56	0.216309	-0.0016571
103.123	0.165344	-0.00281342
105.687	0.114166	-0.00275024
108.25	0.0627747	-0.00243591
110.814	0.0104218	-0.00216949
113.377	-0.0398956	-0.00193268
115.941	-0.09198	-0.00176208
118.504	-0.142242	-0.00165192
121.068	-0.154572	-0.00150391
123.631	-0.104065	-0.00131134
126.195	-0.052002	-0.00112396
128.758	-0.000878906	-0.000909424
131.322	0.0495514	-0.000648804
133.885	0.101593	-0.000324615
136.448	0.152527	8.10547e-05
139.012	0.203125	0.000605469
141.575	0.254028	0.00126678
144.139	0.30481	0.00230316
146.702	0.357086	0.00196045
149.266	0.407593	0.00114258
151.829	0.459869	0.000845947
154.393	0.510315	0.000699463
156.956	0.561249	0.000628357
159.52	0.613007	0.000585022
162.083	0.590729	0.000482208
164.647	0.540314	0.000395172
167.21	0.488281	0.000302673
169.774	0.438141	0.000168091
172.337	0.385925	-1.7392e-05
174.901	0.334961	-0.000243317
177.464	0.284088	-0.000577087
180.027	0.232849	-0.00116608
182.591	0.181305	-0.0023407
185.154	0.130859	-0.00252472
187.718	0.0799866	-0.0021521
190.281	0.0278931	-0.00190186
192.845	-0.02276	-0.00167145
195.408	-0.0749817	-0.00149689
197.972	-0.12558	-0.0013797
200.535	-0.172333	-0.00128052
203.099	-0.121307	-0.001073
205.662	-0.0702515	-0.000888062
208.226	-0.0177948	-0.000688782
210.789	0.0324738	-0.000458252
213.353	0.0845032	-0.000181152
215.916	0.134735	0.000158112
218.479	0.186523	0.000593567
221.043	0.237549	0.00115784
223.606	0.288849	0.00200928
226.17	0.339386	0.0025589
228.733	0.391541	0.00145111
231.297	0.442017	0.00102966
233.86	0.493225	0.000837402
236.424	0.545135	0.000747681
238.987	0.595398	0.000697632
241.551	0.60791	0.000611877
244.114	0.557129	0.000506287
246.678	0.505341	0.00040976
249.241	0.454987	0.00028479
251.805	0.403015	0.000108246
254.368	0.352844	-0.000106628
256.932	0.301392	-0.000395874
259.495	0.249329	-0.000891113
262.058	0.199005	-0.00181549
264.622	0.147949	-0.00260742
267.185	0.0958557	-0.00220459
269.749	0.0453552	-0.0019281
272.312	-0.00671997	-0.00167847
274.876	-0.0577087	-0.00147675
277.439	-0.108826	-0.0013382
280.003	-0.159973	-0.00123932
282.566	-0.137939	-0.00105652
285.13	-0.0867004	-0.000879517
287.693	-0.0350769	-0.000699463
290.257	0.0151917	-0.0004921875
292.82	0.0672302	-0.000241547
295.384	0.1171875	6.81458e-05
297.947	0.168732	0.000460236
300.511	0.219818	0.000979614
303.074	0.270813	0.00168213
305.637	0.322662	0.00264709
308.201	0.374146	0.00180237
310.764	0.425781	0.00117249
313.328	0.476013	0.00092804
315.891	0.528046	0.000814209
318.455	0.579346	0.000757751
321.018	0.624878	0.00071167
323.582	0.573456	0.00058197
326.145	0.52243	0.000482117
328.709	0.47168	0.000367035
331.272	0.421021	0.000204651
333.836	0.368713	-1.92261e-07
336.399	0.318756	-0.000256226
338.963	0.266724	-0.000667419
341.526	0.216278	-0.00139099
344.09	0.164612	-0.0025882
346.653	0.113617	-0.00231415
349.216	0.0618286	-0.00198303
351.78	0.0107819	-0.00171509
354.343	-0.0406067	-0.0014859
356.907	-0.0910645	-0.00132416
359.47	-0.142212	-0.00121246
362.034	-0.155182	-0.00106903
364.597	-0.103912	-0.000891113
367.161	-0.0531311	-0.000721741
369.724	-0.00185852	-0.000531921
372.288	0.0493164	-0.000303314
374.851	0.10141	-2.01172e-05
377.415	0.151459	0.000334991
379.978	0.20285	0.000803833
382.542	0.254242	0.00141876
385.105	0.304993	0.00240021
387.669	0.357269	0.00228424
390.232	0.407593	0.00132965
392.795	0.459259	0.00101288
395.359	0.511017	0.000864868
397.922	0.561981	0.000797424
400.486	0.61264	0.000758667
403.049	0.590698	0.000643311
405.613	0.539276	0.000538635
408.176	0.4888	0.000430817
410.74	0.437683	0.000284729
413.303	0.385742	9.11255e-05
415.867	0.334778	-0.000141998
418.43	0.284515	-0.000484863
420.994	0.232971	-0.001091
423.557	0.181915	-0.00231781
426.121	0.130646	-0.00246094
428.684	0.0791626	-0.00205872
431.248	0.0283142	-0.00177185
433.811	-0.0229706	-0.00152069
436.374	-0.0744019	-0.00133667
438.938	-0.125214	-0.00120972
441.501	-0.171631	-0.00111023
444.065	-0.121124	-0.000917664
446.628	-0.0700989	-0.000752563
449.192	-0.0187805	-0.000574951
451.755	0.0324402	-0.000364227
454.319	0.0841675	-0.000104492
456.882	0.134216	0.000220337
459.446	0.186096	0.00064209
462.009	0.236938	0.00120026
464.573	0.28891	0.00203461
467.136	0.339996	0.00266876
469.7	0.390717	0.00154541
472.263	0.442505	0.00110809
474.826	0.493317	0.000916748
477.39	0.545258	0.000830994
479.953	0.596161	0.000786438
482.517	0.607666	0.000701294
485.08	0.556366	0.000588074
487.644	0.505463	0.000483856
490.207	0.454468	0.000353271
492.771	0.402985	0.000173218
495.334	0.351715	-4.41589e-05
497.898	0.300476	-0.000336365
500.461	0.249908	-0.000839233
503.025	0.198212	-0.00179535
505.588	0.147186	-0.00258942
508.152	0.0959167	-0.00216095
510.715	0.0445831	-0.0018457
513.279	-0.00668335	-0.00157593
515.842	-0.0577393	-0.00136932
518.405	-0.109222	-0.00122498
520.969	-0.159607	-0.00112762
523.532	-0.138519	-0.000954895
526.096	-0.0863342	-0.000789185
528.659	-0.0356964	-0.000619812
531.223	0.0152771	-0.000423584
533.786	0.0667114	-0.000184387
536.35	0.118225	0.00011441
538.913	0.169098	0.000495605
541.477	0.220093	0.00100616
544.04	0.271057	0.00170105
546.604	0.322479	0.00267975
549.167	0.373688	0.00187927
551.731	0.425323	0.0012204
554.294	0.476837	0.000975952
556.858	0.527588	0.000863342
559.421	0.579346	0.000810242
561.984	0.625244	0.000768127
564.548	0.57373	0.000634766
567.111	0.522217	0.000530701
569.675	0.471985	0.00041214
572.238	0.421051	0.000248383
574.802	0.369019	4.3396e-05
577.365	0.31897	-0.000212982
579.929	0.267578	-0.000626831
582.492	0.215698	-0.00135925
585.056	0.165039	-0.00258545
587.619	0.113159	-0.00229462
590.183	0.0624695	-0.00192993
592.746	0.0103027	-0.00164185
595.31	-0.0408813	-0.00141235
597.873	-0.0921936	-0.00124939
600.437	-0.142303	-0.00113892
603	-0.154724	-0.00100006
605.563	-0.10318	-0.000828247
608.127	-0.0531921	-0.000664368
610.69	-0.000817871	-0.000480499
613.254	0.0503723	-0.000259247
615.817	0.100616	1.63422e-05
618.381	0.151886	0.000363708
620.944	0.202698	0.000824585
623.508	0.25412	0.00143433
626.071	0.305756	0.00241058
628.635	0.356445	0.00235992
631.198	0.40863	0.00136475
633.762	0.45932	0.00104675
636.325	0.511139	0.000899658
638.889	0.561676	0.00083374
641.452	0.613464	0.000798035
644.016	0.590515	0.000682068
646.579	0.540436	0.000574646
649.142	0.489105	0.000464294
651.706	0.436981	0.000317322
654.269	0.385956	0.000124298
656.833	0.334717	-0.000108246
659.396	0.28421	-0.000451355
661.96	0.232727	-0.0010611
664.523	0.182098	-0.00231171
667.087	0.130157	-0.00245514
669.65	0.0796814	-0.00202698
672.214	0.0274902	-0.00171631
674.777	-0.0238037	-0.00146606
677.341	-0.0750732	-0.00128235
679.904	-0.125916	-0.00115692
682.468	-0.172638	-0.00105957
685.031	-0.12027	-0.000870972
687.595	-0.0690918	-0.000709229
690.158	-0.0187469	-0.000535278
692.721	0.0325439	-0.000329498
695.285	0.0841064	-7.53479e-05
697.848	0.134766	0.000243622
700.412	0.186035	0.000658875
702.975	0.237396	0.00121246
705.539	0.288086	0.00204041
708.102	0.339783	0.00270569
710.666	0.39035	0.00157532
713.229	0.442627	0.0011319
715.793	0.494019	0.000941772
718.356	0.544098	0.000856934
720.92	0.595734	0.000814819
723.483	0.60788	0.000730896
726.047	0.556671	0.00061615
728.61	0.505829	0.000510254
731.173	0.454102	0.000378845
733.737	0.403015	0.000199585
736.3	0.352783	-1.67358e-05
738.864	0.30188	-0.000308014
741.427	0.250153	-0.000811768
743.991	0.198547	-0.00178253
746.554	0.147339	-0.00258972
749.118	0.0968018	-0.00214386
751.681	0.0446838	-0.0017984
754.245	-0.0063385	-0.00152802
756.808	-0.0571899	-0.00132416
759.372	-0.108459	-0.00118195
761.935	-0.1604	-0.00108704
764.499	-0.138336	-0.000917053
767.062	-0.0865479	-0.000753784
769.626	-0.0351746	-0.000587158
772.189	0.0163239	-0.000394409
774.752	0.0671387	-0.000159698
777.316	0.117371	0.000134003
779.879	0.168579	0.000509644
782.443	0.219879	0.00101471
785.006	0.270905	0.0017038
787.57	0.322418	0.00268799
790.133	0.374237	0.00191589
792.697	0.425079	0.00123779
795.26	0.47641	0.000994568
797.824	0.5271	0.000883179
800.387	0.579193	0.000831909
802.951	0.625	0.000791931
805.514	0.573761	0.000657349
808.078	0.522827	0.000551758
810.641	0.471924	0.000433075
813.205	0.420044	0.00027002
815.768	0.368927	6.61011e-05
818.331	0.31778	-0.000189178
818.82	0.308167	-0.00025116