File: Edgar/20230626/20230626/electrodeposition_prussian_blue/voltametry_sample_D/good_data_voltammetry.txt
Potential applied (V);Time (s);WE(1).Current (A);WE(1).Potential (V);Scan;Index;Q+;Q-
0,25360107421875;937,06437263414;9,41009521484375E-06;0,25030517578125;1;1;0,112389933876693;-0,0832733988761901
0,52215576171875;950,492072600238;0,000496307373046875;0,521728515625;1;111;0,112389933876693;-0,0832733988761901
0,79071044921875;963,919772566337;0,000997314453125;0,79071044921875;1;221;0,112389933876693;-0,0832733988761901
1,05926513671875;977,347472532435;0,004149169921875;1,0589599609375;1;331;0,112389933876693;-0,0832733988761901
1,12762451171875;990,775172498533;0,00215789794921875;1,126708984375;1;441;0,112389933876693;-0,0832733988761901
0,85906982421875;1004,20287246463;-0,0016790771484375;0,85906982421875;1;551;0,112389933876693;-0,0832733988761901
0,59051513671875;1017,63057243073;-0,000286041259765625;0,58966064453125;1;661;0,112389933876693;-0,0832733988761901
0,32196044921875;1031,05827239683;-0,00067840576171875;0,321502685546875;1;771;0,112389933876693;-0,0832733988761901
0,05340576171875;1044,48597236293;-0,00233062744140625;0,053955078125;1;881;0,112389933876693;-0,0832733988761901
-0,13702392578125;1057,91367232902;-0,00140289306640625;-0,135955810546875;1;991;0,112389933876693;-0,0832733988761901
0,13153076171875;1071,34137229512;-0,00019927978515625;0,131591796875;1;1101;0,112389933876693;-0,0832733988761901
0,40008544921875;1084,76907226122;0,0010418701171875;0,3994140625;2;1211;0,105122831836343;-0,094011826068163
0,66864013671875;1098,19677222732;0,00054290771484375;0,66790771484375;2;1321;0,105122831836343;-0,094011826068163
0,93719482421875;1111,62447219342;0,0018280029296875;0,93780517578125;2;1431;0,105122831836343;-0,094011826068163
1,20574951171875;1125,05217215952;0,0042205810546875;1,20452880859375;2;1541;0,105122831836343;-0,094011826068163
0,98114013671875;1138,47987212561;-0,000469451904296875;0,9814453125;2;1651;0,105122831836343;-0,094011826068163
0,71258544921875;1151,90757209171;-0,00075439453125;0,711883544921875;2;1761;0,105122831836343;-0,094011826068163
0,44403076171875;1165,33527205781;-0,000380126953125;0,44378662109375;2;1871;0,105122831836343;-0,094011826068163
0,17547607421875;1178,76297202391;-0,00260284423828125;0,17584228515625;2;1981;0,105122831836343;-0,094011826068163
-0,09307861328125;1192,19067199001;-0,00176849365234375;-0,092010498046875;2;2091;0,105122831836343;-0,094011826068163
0,00946044921875;1205,61837195611;-0,0009112548828125;0,00986633300781251;2;2201;0,105122831836343;-0,094011826068163
0,27801513671875;1219,0460719222;0,0015228271484375;0,277374267578125;3;2311;0,0986447416245937;-0,0939183745533228
0,54656982421875;1232,4737718883;0,00054351806640625;0,5455322265625;3;2421;0,0986447416245937;-0,0939183745533228
0,81512451171875;1245,9014718544;0,000823974609375;0,81390380859375;3;2531;0,0986447416245937;-0,0939183745533228
1,08367919921875;1259,3291718205;0,00395965576171875;1,08367919921875;3;2641;0,0986447416245937;-0,0939183745533228
1,10321044921875;1272,7568717866;0,00089141845703125;1,10321044921875;3;2751;0,0986447416245937;-0,0939183745533228
0,83465576171875;1286,1845717527;-0,00210174560546875;0,833740234375;3;2861;0,0986447416245937;-0,0939183745533228
0,56610107421875;1299,61227171879;-0,000455963134765625;0,5662841796875;3;2971;0,0986447416245937;-0,0939183745533228
0,29754638671875;1313,03997168489;-0,00095428466796875;0,29803466796875;3;3081;0,0986447416245937;-0,0939183745533228
0,02899169921875;1326,46767165099;-0,00217742919921875;0,0291595458984375;3;3191;0,0986447416245937;-0,0939183745533228
-0,11260986328125;1339,89537161709;-0,00133575439453125;-0,11181640625;3;3301;0,0986447416245937;-0,0939183745533228
0,15594482421875;1353,32307158319;-6,9366455078125E-05;0,155517578125;3;3411;0,0986447416245937;-0,0939183745533228
0,42449951171875;1366,75077154929;0,0007763671875;0,42449951171875;4;3521;0,0879381462931634;-0,0554700002074242
0,69305419921875;1380,17847151538;0,000478240966796875;0,6923828125;4;3631;0,0879381462931634;-0,0554700002074242
0,96160888671875;1393,60617148148;0,00212188720703125;0,9619140625;4;3741;0,0879381462931634;-0,0554700002074242
1,22528076171875;1407,03387144758;0,00262420654296875;1,22528076171875;4;3851;0,0879381462931634;-0,0554700002074242
0,95672607421875;1420,46157141368;-0,000371673583984375;0,95703125;4;3961;0,0879381462931634;-0,0554700002074242
0,68817138671875;1433,88927137978;-0,00030316162109375;0,687744140625;4;4071;0,0879381462931634;-0,0554700002074242
0,41961669921875;1447,31697134588;-0,000237518310546875;0,419219970703125;4;4181;0,0879381462931634;-0,0554700002074242
0,15106201171875;1460,74467131197;-0,001494140625;0,151611328125;4;4291;0,0879381462931634;-0,0554700002074242
-0,11749267578125;1474,17237127807;-0,00118255615234375;-0,1173095703125;4;4401;0,0879381462931634;-0,0554700002074242
0,03387451171875;1487,60007124417;-0,0005914306640625;0,03402099609375;4;4511;0,0879381462931634;-0,0554700002074242
0,30242919921875;1501,02777121027;0,00088226318359375;0,30267333984375;5;4621;0,0435631196945906;-0,0371700432151556
0,57098388671875;1514,45547117637;0,000343292236328125;0,57086181640625;5;4731;0,0435631196945906;-0,0371700432151556
0,83953857421875;1527,88317114247;0,000540771484375;0,83984375;5;4841;0,0435631196945906;-0,0371700432151556
1,10809326171875;1541,31087110856;0,00173553466796875;1,10748291015625;5;4951;0,0435631196945906;-0,0371700432151556
1,07879638671875;1554,73857107466;0,00026788330078125;1,077880859375;5;5061;0,0435631196945906;-0,0371700432151556
0,81024169921875;1568,16627104076;-0,000327239990234375;0,80963134765625;5;5171;0,0435631196945906;-0,0371700432151556
0,54168701171875;1581,59397100686;-8,4228515625E-05;0,541961669921875;5;5281;0,0435631196945906;-0,0371700432151556
0,27313232421875;1595,02167097296;-0,00067718505859375;0,273162841796875;5;5391;0,0435631196945906;-0,0371700432151556
0,00457763671875;1608,44937093906;-0,00087554931640625;0,00496826171875001;5;5501;0,0435631196945906;-0,0371700432151556
-0,08819580078125;1621,87707090515;-0,000699462890625;-0,0880126953125;5;5611;0,0435631196945906;-0,0371700432151556
0,18035888671875;1635,30477087125;-0,000118316650390625;0,180145263671875;5;5721;0,0435631196945906;-0,0371700432151556
0,44891357421875;1648,73247083735;0,00032073974609375;0,449066162109375;6;5831;0,0281889382749796;-0,0316347014158964
0,71746826171875;1662,16017080345;0,0002967529296875;0,717254638671875;6;5941;0,0281889382749796;-0,0316347014158964
0,98602294921875;1675,58787076955;0,00069488525390625;0,986328125;6;6051;0,0281889382749796;-0,0316347014158964
1,20086669921875;1689,01557073565;0,00069915771484375;1,20086669921875;6;6161;0,0281889382749796;-0,0316347014158964
0,93231201171875;1702,44327070174;-0,00015667724609375;0,931396484375;6;6271;0,0281889382749796;-0,0316347014158964
0,66375732421875;1715,87097066784;-9,5062255859375E-05;0,663848876953125;6;6381;0,0281889382749796;-0,0316347014158964
0,39520263671875;1729,29867063394;-0,000173675537109375;0,395111083984375;6;6491;0,0281889382749796;-0,0316347014158964
0,12664794921875;1742,72637060004;-0,0007415771484375;0,126983642578125;6;6601;0,0281889382749796;-0,0316347014158964
-0,14190673828125;1756,15407056614;-0,00082000732421875;-0,1416015625;6;6711;0,0281889382749796;-0,0316347014158964
0,05828857421875;1769,58177053224;-0,000341278076171875;0,058929443359375;6;6821;0,0281889382749796;-0,0316347014158964
0,32684326171875;1783,00947049833;0,000335174560546875;0,3270263671875;7;6931;0,0255501255393028;-0,0276088751852512
0,59539794921875;1796,43717046443;0,000276611328125;0,594573974609375;7;7041;0,0255501255393028;-0,0276088751852512
0,86395263671875;1809,86487043053;0,0003607177734375;0,863037109375;7;7151;0,0255501255393028;-0,0276088751852512
1,13250732421875;1823,29257039663;0,00081268310546875;1,13128662109375;7;7261;0,0255501255393028;-0,0276088751852512
1,05438232421875;1836,72027036273;0,0001854248046875;1,05438232421875;7;7371;0,0255501255393028;-0,0276088751852512
0,78582763671875;1850,14797032883;-0,000215240478515625;0,7855224609375;7;7481;0,0255501255393028;-0,0276088751852512
0,51727294921875;1863,57567029492;-4,60205078125E-05;0,517547607421875;7;7591;0,0255501255393028;-0,0276088751852512
0,24871826171875;1877,00337026102;-0,000472320556640625;0,24822998046875;7;7701;0,0255501255393028;-0,0276088751852512
-0,01983642578125;1890,43107022712;-0,0007000732421875;-0,0193939208984375;7;7811;0,0255501255393028;-0,0276088751852512
-0,06378173828125;1903,85877019322;-0,00051239013671875;-0,064056396484375;7;7921;0,0255501255393028;-0,0276088751852512
0,20477294921875;1917,28647015932;-2,63519287109375E-05;0,204833984375;7;8031;0,0255501255393028;-0,0276088751852512
0,47332763671875;1930,71417012542;0,00027789306640625;0,473297119140625;8;8141;0,0241653323173523;-0,0249507743865252
0,74188232421875;1944,14187009151;0,000290802001953125;0,7408447265625;8;8251;0,0241653323173523;-0,0249507743865252
1,01043701171875;1957,56957005761;0,00058685302734375;1,01043701171875;8;8361;0,0241653323173523;-0,0249507743865252
1,17645263671875;1970,99727002371;0,00053375244140625;1,1767578125;8;8471;0,0241653323173523;-0,0249507743865252
0,90789794921875;1984,42496998981;-0,000169403076171875;0,90728759765625;8;8581;0,0241653323173523;-0,0249507743865252
0,63934326171875;1997,85266995591;-6,0577392578125E-05;0,63934326171875;8;8691;0,0241653323173523;-0,0249507743865252
0,37078857421875;2011,28036992201;-0,000154296875;0,370941162109375;8;8801;0,0241653323173523;-0,0249507743865252
0,10223388671875;2024,7080698881;-0,0005743408203125;0,102081298828125;8;8911;0,0241653323173523;-0,0249507743865252
-0,16632080078125;2038,1357698542;-0,00071380615234375;-0,16546630859375;8;9021;0,0241653323173523;-0,0249507743865252
0,08270263671875;2051,5634698203;-0,000238372802734375;0,0823974609375;8;9131;0,0241653323173523;-0,0249507743865252
0,35125732421875;2064,9911697864;0,000281646728515625;0,3507080078125;9;9241;0,00989346951246262;0
0,61981201171875;2078,4188697525;0,00025469970703125;0,618896484375;9;9351;0,00989346951246262;0
0,88836669921875;2091,8465697186;0,00034271240234375;0,887451171875;9;9461;0,00989346951246262;0
0,94696044921875;2094,7762497112;0,00042193603515625;0,94635009765625;9;9485;0,00989346951246262;0