File: Edgar/20230626/20230626/electrodeposition_prussian_blue/voltametry_sample_D/OCP_1
Time (s)	WE(1).Potential (V)
4.60529	0.433685
4.80529	0.433868
5.00529	0.434052
5.20529	0.434235
5.40529	0.434418
5.60529	0.434601
5.80529	0.434784
6.00529	0.434967
6.20529	0.435181
6.40529	0.435364
6.60529	0.435547
6.80529	0.43573
7.00529	0.435913
7.20529	0.436127
7.40529	0.43631
7.60529	0.436493
7.80529	0.436676
8.00529	0.43689
8.20529	0.437073
8.40529	0.437256
8.60529	0.437469
8.80529	0.437653
9.00529	0.437836
9.20529	0.438049
9.40529	0.438232
9.60529	0.438416
9.80529	0.438629
10.0053	0.438812
10.2053	0.438995
10.4053	0.439209
10.6053	0.439392
10.8053	0.439606
11.0053	0.439789
11.2053	0.439972
11.4053	0.440186
11.6053	0.440369
11.8053	0.440582
12.0053	0.440765
12.2053	0.440979
12.4053	0.441162
12.6053	0.441345
12.8053	0.441559
13.0053	0.441742
13.2053	0.441956
13.4053	0.442139
13.6053	0.442322
13.8053	0.442535
14.0053	0.442719
14.2053	0.442932
14.4053	0.443115
14.6053	0.443298
14.8053	0.443512
15.0053	0.443695
15.2053	0.443909
15.4053	0.444092
15.6053	0.444275
15.8053	0.444489
16.0053	0.444672
16.2053	0.444855
16.4053	0.445068
16.6053	0.445251
16.8053	0.445435
17.0053	0.445618
17.2053	0.445831
17.4053	0.446014
17.6053	0.446198
17.8053	0.446381
18.0053	0.446594
18.2053	0.446777
18.4053	0.44696
18.6053	0.447144
18.8053	0.447327
19.0053	0.44754
19.2053	0.447723
19.4053	0.447906
19.6053	0.44809
19.8053	0.448273
20.0053	0.448456
20.2053	0.448639
20.4053	0.448822
20.6053	0.449005
20.8053	0.449188
21.0053	0.449371
21.2053	0.449554
21.4053	0.449738
21.6053	0.449921
21.8053	0.450104
22.0053	0.450287
22.2053	0.45047
22.4053	0.450653
22.6053	0.450836
22.8053	0.451019
23.0053	0.451172
23.2053	0.451355
23.4053	0.451538
23.6053	0.451721
23.8053	0.451904
24.0053	0.452057
24.2053	0.45224
24.4053	0.452423
24.6053	0.452576
24.8053	0.452759
25.0053	0.452942
25.2053	0.453094
25.4053	0.453278
25.6053	0.45343
25.8053	0.453613
26.0053	0.453796
26.2053	0.453949
26.4053	0.454102
26.6053	0.454285
26.8053	0.454437
27.0053	0.45462
27.2053	0.454773
27.4053	0.454956
27.6053	0.455109
27.8053	0.455261
28.0053	0.455444
28.2053	0.455597
28.4053	0.45575
28.6053	0.455902
28.8053	0.456085
29.0053	0.456238
29.2053	0.45639
29.4053	0.456543
29.6053	0.456696
29.8053	0.456848
30.0053	0.457031
30.2053	0.457184
30.4053	0.457336
30.6053	0.457489
30.8053	0.457642
31.0053	0.457794
31.2053	0.457947
31.4053	0.458099
31.6053	0.458221
31.8053	0.458374
32.0053	0.458527
32.2053	0.458679
32.4053	0.458832
32.6053	0.458984
32.8053	0.459137
33.0053	0.459259
33.2053	0.459412
33.4053	0.459564
33.6053	0.459717
33.8053	0.459839
34.0053	0.459991
34.2053	0.460144
34.4053	0.460266
34.6053	0.460419
34.8053	0.460541
35.0053	0.460693
35.2053	0.460815
35.4053	0.460968
35.6053	0.46109
35.8053	0.461243
36.0053	0.461365
36.2053	0.461517
36.4053	0.461639
36.6053	0.461761
36.8053	0.461914
37.0053	0.462036
37.2053	0.462189
37.4053	0.462311
37.6053	0.462433
37.8053	0.462555
38.0053	0.462708
38.2053	0.46283
38.4053	0.462952
38.6053	0.463074
38.8053	0.463196
39.0053	0.463348
39.2053	0.46347
39.4053	0.463593
39.6053	0.463715
39.8053	0.463837
40.0053	0.463959
40.2053	0.464081
40.4053	0.464203
40.6053	0.464325
40.8053	0.464447
41.0053	0.464569
41.2053	0.464691
41.4053	0.464813
41.6053	0.464935
41.8053	0.465057
42.0053	0.465179
42.2053	0.465302
42.4053	0.465393
42.6053	0.465515
42.8053	0.465637
43.0053	0.465759
43.2053	0.465851
43.4053	0.465973
43.6053	0.466095
43.8053	0.466217
44.0053	0.466309
44.2053	0.466431
44.4053	0.466553
44.6053	0.466644
44.8053	0.466766
45.0053	0.466858
45.2053	0.46698
45.4053	0.467072
45.6053	0.467194
45.8053	0.467316
46.0053	0.467407
46.2053	0.467529
46.4053	0.467621
46.6053	0.467712
46.8053	0.467834
47.0053	0.467926
47.2053	0.468048
47.4053	0.46814
47.6053	0.468231
47.8053	0.468353
48.0053	0.468445
48.2053	0.468536
48.4053	0.468658
48.6053	0.46875
48.8053	0.468842
49.0053	0.468933
49.2053	0.469055
49.4053	0.469147
49.6053	0.469238
49.8053	0.46933
50.0053	0.469421
50.2053	0.469513
50.4053	0.469635
50.6053	0.469727
50.8053	0.469818
51.0053	0.46991
51.2053	0.470001
51.4053	0.470093
51.6053	0.470184
51.8053	0.470276
52.0053	0.470367
52.2053	0.470459
52.4053	0.470551
52.6053	0.470642
52.8053	0.470734
53.0053	0.470825
53.2053	0.470917
53.4053	0.471008
53.6053	0.471069
53.8053	0.471161
54.0053	0.471252
54.2053	0.471344
54.4053	0.471436
54.6053	0.471527
54.8053	0.471588
55.0053	0.47168
55.2053	0.471771
55.4053	0.471863
55.6053	0.471954
55.8053	0.472015
56.0053	0.472107
56.2053	0.472198
56.4053	0.47226
56.6053	0.472351
56.8053	0.472443
57.0053	0.472504
57.2053	0.472595
57.4053	0.472687
57.6053	0.472748
57.8053	0.472839
58.0053	0.472931
58.2053	0.472992
58.4053	0.473083
58.6053	0.473145
58.8053	0.473236
59.0053	0.473297
59.2053	0.473389
59.4053	0.47345
59.6053	0.473541
59.8053	0.473602
60.0053	0.473694
60.2053	0.473755
60.4053	0.473846
60.6053	0.473907
60.8053	0.473999
61.0053	0.47406
61.2053	0.474121
61.4053	0.474213
61.6053	0.474274
61.8053	0.474365
62.0053	0.474426
62.2053	0.474487
62.4053	0.474579
62.6053	0.47464
62.8053	0.474701
63.0053	0.474792
63.2053	0.474854
63.4053	0.474915
63.6053	0.474976
63.8053	0.475067
64.0053	0.475128
64.2053	0.475189
64.4053	0.47525
64.5053	0.475311