File: Edgar/20240607/20240607/electrodeposition_pulsed_potential_20240607_C/pulses_0_to_1000.txt
Time (s)	WE(1).Potential (V)	WE(1).Current (A)
181.686	-0.699738	-0.0029657
184.026	0.000799561	0.000128387
186.346	-0.000439453	3.45154e-05
188.686	-0.698364	-0.00438019
191.026	-0.000152588	0.0002677
193.346	6.71387e-05	4.82178e-05
195.686	-0.699371	-0.00642761
198.026	0.000604248	0.000473206
200.346	0.000640869	1.77307e-05
202.686	-0.699219	-0.00797119
205.026	0.000521851	0.000809021
207.346	0.000799561	-2.02637e-05
209.686	-0.698425	-0.00904236
212.026	-0.000125122	0.00140717
214.346	-0.000439453	-3.21045e-05
216.686	-0.698364	-0.00991516
219.026	0.000933838	0.00220123
221.346	0.000527954	-5.11169e-05
223.686	-0.699158	-0.0106567
226.026	-0.000238037	0.00309235
228.346	0.000549316	-6.03943e-05
230.686	-0.698395	-0.0113312
233.026	-0.000244141	0.00394806
235.346	-0.000421143	-5.91736e-05
237.686	-0.698273	-0.011911
240.026	0.000326538	0.00471405
242.346	-9.15527e-06	-6.28662e-05
244.686	-0.699402	-0.0124115
247.026	0.000518799	0.00538574
249.346	9.15527e-06	-6.66809e-05
251.686	-0.698029	-0.0128632
254.026	0.000320435	0.00596008
256.346	-0.000442505	-6.21033e-05
258.686	-0.699341	-0.013266
261.026	0.000787354	0.00645081
263.346	0.000848389	-6.66199e-05
265.686	-0.697906	-0.0136353
268.026	-0.000466919	0.00687134
270.346	0.000756836	-5.9021e-05
272.686	-0.6987	-0.0139679
275.026	-0.000488281	0.00722351
277.346	0.000231934	-4.17175e-05
279.686	-0.697998	-0.0142639
282.026	-0.000408936	0.00752258
284.346	0.000161743	-3.10669e-05
286.686	-0.697845	-0.0145264
289.026	-0.00012207	0.00777588
291.346	-0.000274658	-6.19507e-06
293.686	-0.698273	-0.0147736
296.026	-0.000637817	0.00798645
298.346	-0.000341797	1.9043e-05
300.686	-0.6987	-0.0150024
303.026	-0.000204468	0.00817261
305.346	0.000564575	3.96423e-05
307.686	-0.698425	-0.0152252
310.026	7.62939e-05	0.0083313
312.346	0.00088501	7.03125E-05
314.686	-0.699097	-0.0154083
317.026	-4.57764e-05	0.00847778
319.346	-0.000466919	0.000114502
321.686	-0.699219	-0.0155884
324.026	-0.000515747	0.00861206
326.346	-0.000439453	0.000151733
328.686	-0.698944	-0.0157501
331.026	0.000564575	0.00871887
333.346	0.000805664	0.000185364
335.686	-0.697845	-0.015918
338.026	0.00057373	0.00881348
340.346	0.00022583	0.000233826
342.686	-0.69873	-0.0160583
345.026	0.000286865	0.00889893
347.346	0.000817871	0.00027536
349.686	-0.699066	-0.0161896
352.026	-4.88281e-05	0.00896912
354.346	0.000534058	0.000328003
356.686	-0.699127	-0.0163147
359.026	0.000482178	0.00903625
361.346	0.000674438	0.000375092
363.686	-0.698792	-0.0164337
366.026	0.000509644	0.00910034
368.346	0.000674438	0.000427704
370.686	-0.698883	-0.0165436
373.026	-0.000320435	0.00916443
375.346	0.000469971	0.000481079
377.686	-0.698486	-0.0166656
380.026	-0.000692749	0.0092041
382.346	0.000897217	0.000536499
384.686	-0.697784	-0.0167694
387.026	-0.000662231	0.00924683
389.346	0.000146484	0.000591125
391.686	-0.699097	-0.0168579
394.026	-0.000323486	0.00926819
396.346	-0.000177002	0.000655518
398.686	-0.698944	-0.0169495
401.026	0.000402832	0.00931396
403.346	0.000717163	0.000703735
405.686	-0.697815	-0.0170441
408.026	-0.000540161	0.00934448
410.346	-0.000213623	0.000768738
412.686	-0.697998	-0.0171173
415.026	-3.05176e-06	0.00935669
417.346	-0.000372314	0.000827026
419.686	-0.697998	-0.0171997
422.026	-0.000726318	0.00938416
424.346	0	0.000877991
426.686	-0.697693	-0.0172729
429.026	0.000506592	0.00940247
431.346	-0.000357056	0.000940552
433.686	-0.698822	-0.0173401
436.026	-0.000564575	0.00940857
438.346	-0.000164795	0.000994568
440.686	-0.698273	-0.0174011
443.026	0.000531006	0.00942383
445.346	0.000146484	0.00104828
447.686	-0.698822	-0.0174744
450.026	0.000140381	0.00942688
452.346	0.00039978	0.00110687
454.686	-0.698212	-0.0175446
457.026	-0.000671387	0.00944519
459.346	-0.000204468	0.00116119
461.686	-0.697662	-0.0175964
464.026	-0.000643921	0.00943909
466.346	0.000183105	0.00121368
468.686	-0.698975	-0.0176453
471.026	0.000466919	0.00944214
473.346	0.000494385	0.00126587
475.686	-0.697754	-0.0177124
478.026	-0.000692749	0.00945129
480.346	0.000704956	0.00132172
482.686	-0.698944	-0.0177551
485.026	-0.000680542	0.00945129
487.346	0.000839233	0.00137604
489.686	-0.698975	-0.017804
492.026	-0.000601196	0.00945129
494.346	-0.000360107	0.0014328
496.686	-0.698639	-0.0178467
499.026	-3.66211e-05	0.00944214
501.346	0.00045166	0.00147919
503.686	-0.698395	-0.0178986
506.026	-0.000289917	0.00944214
508.346	-0.000308228	0.00153687
510.686	-0.698029	-0.0179291
513.026	-0.000567627	0.00944214
515.346	-0.000296021	0.00158722
517.686	-0.698975	-0.0179749
520.026	0.000134277	0.00942383
522.346	-0.00022583	0.00163849
524.686	-0.697784	-0.0180206
527.026	-2.13623e-05	0.00942383
529.346	0.000686646	0.00167511
531.686	-0.698792	-0.018045
534.026	0.000588989	0.00942078
536.346	0.000128174	0.00172607
538.686	-0.697998	-0.0180878
541.026	-0.000726318	0.00941467
543.346	0.000808716	0.00177063
545.686	-0.698181	-0.0181274
548.026	-0.000292969	0.00941162
550.346	0.000869751	0.0018158
552.686	-0.698914	-0.0181488
555.026	0.000299072	0.00939636
557.346	-0.000408936	0.0018692
559.686	-0.698792	-0.0181824
562.026	0.000241089	0.00939331
564.346	0.000756836	0.00190521
566.686	-0.698944	-0.0182068
569.026	0.000546265	0.00937805
571.346	-0.000192261	0.00195343
573.686	-0.698975	-0.0182312
576.026	0.000112915	0.00937805
578.346	-0.000219727	0.00199829
580.686	-0.698944	-0.0182556
583.026	-0.000506592	0.00935974
585.346	-0.000311279	0.00204163
587.686	-0.697662	-0.0182892
590.026	-0.000262451	0.00934753
592.346	0.000357056	0.00207794
594.686	-0.6987	-0.0183044
597.026	-0.000430298	0.00934753
599.346	-0.000259399	0.00212219
601.686	-0.69809	-0.0183319
604.026	4.88281e-05	0.00932312
606.346	7.32422e-05	0.00215759
608.686	-0.698364	-0.0183563
611.026	0.000515747	0.00932312
613.346	-0.000354004	0.0022052
615.686	-0.697876	-0.0183746
618.026	0.000466919	0.00931091
620.346	0.000302124	0.0022403
622.686	-0.697784	-0.018396
625.026	0.000473022	0.00929565
627.346	0.000143433	0.00227875
629.686	-0.698669	-0.0184052
632.026	0.000363159	0.0092865
634.346	0.000595093	0.00230835
636.686	-0.698517	-0.0184265
639.026	0.000463867	0.00927124
641.346	-7.01904e-05	0.00235291
643.686	-0.698669	-0.0184326
646.026	-0.000769043	0.00925903
648.346	-0.000106812	0.00238525
650.686	-0.697662	-0.0184509
653.026	-0.000561523	0.00925598
655.346	0.000845337	0.00241608
657.686	-0.698853	-0.0184631
660.027	-0.000140381	0.00924072
662.347	0.000735474	0.00245148
664.687	-0.698547	-0.0184814
667.027	-0.000366211	0.00923462
669.347	0.000186157	0.00249054
671.687	-0.698792	-0.0184906
674.027	0.000128174	0.0092041
676.347	0.000283813	0.0025174
678.687	-0.698792	-0.0184998
681.027	-0.000619507	0.00920105
683.347	-0.000134277	0.00255768
685.687	-0.698883	-0.0185181
688.027	0.000363159	0.00919189
690.347	0.000772095	0.00258209
692.687	-0.698792	-0.0185211
695.027	0.000479126	0.00917358
697.347	0.000714111	0.00261353
699.687	-0.69812	-0.0185394
702.027	0.000219727	0.00914917
704.347	0.000454712	0.00264709
706.687	-0.698181	-0.0185425
709.027	-0.000537109	0.00915527
711.347	-0.0003479	0.00267822
713.687	-0.698853	-0.0185516
716.027	-0.000631714	0.00914001
718.347	-7.62939e-05	0.00271118
720.687	-0.698761	-0.0185638
723.027	-0.000488281	0.00912781
725.347	-0.000363159	0.00273834
727.687	-0.698669	-0.0185669
730.027	1.2207e-05	0.00911865
732.347	0.000756836	0.00276031
734.687	-0.698883	-0.018576
737.027	-8.23975e-05	0.00908813
739.347	0.000744629	0.0027887
741.687	-0.697845	-0.0185944
744.027	0.000497437	0.00908203
746.347	-0.00039978	0.00281799
748.687	-0.697906	-0.0185974
751.027	0.000363159	0.00906677
753.347	0.000595093	0.00283997
755.687	-0.698486	-0.0185974
758.027	-0.000585937	0.00905762
760.347	-0.000189209	0.0028714
762.687	-0.698883	-0.0185974
765.027	0.000354004	0.00903931
767.347	0.000112915	0.00289825
769.687	-0.698792	-0.0186005
772.027	-0.000476074	0.00902405
774.347	-4.57764e-05	0.0029187
776.687	-0.698669	-0.0186157
779.027	0.000463867	0.00901489
781.347	9.46045e-05	0.00294373
783.687	-0.698029	-0.0186127
786.027	-0.000634766	0.00900269
788.347	0.000823975	0.00296661
790.687	-0.697784	-0.0186279
793.027	-0.000250244	0.00899353
795.347	0.000564575	0.00299133
797.687	-0.698792	-0.0186218
800.027	-0.000720215	0.00898132
802.347	0.000369263	0.00301788
804.687	-0.697632	-0.0186371
807.027	0.000491333	0.00896606
809.347	-0.000140381	0.00304321
811.687	-0.698029	-0.0186249
814.027	-0.000820923	0.00895386
816.347	1.2207e-05	0.00306396
818.687	-0.698303	-0.0186401
821.027	-0.000189209	0.0089447
823.347	0.000262451	0.00308075
825.687	-0.698029	-0.018631
828.027	-0.000357056	0.00893555
830.347	-0.000448608	0.00310852
832.687	-0.697876	-0.0186401
835.027	-0.000701904	0.00891418
837.347	0.000921631	0.00312317
839.687	-0.698914	-0.0186432
842.027	-0.000289917	0.00889893
844.347	-0.000421143	0.00315094
846.687	-0.697906	-0.0186493
849.027	-0.000704956	0.00889282
851.347	-0.000289917	0.00317078
853.687	-0.697754	-0.0186493
856.027	-0.000537109	0.00887451
858.347	0.000817871	0.0031842
860.687	-0.697723	-0.0186432
863.027	-0.000643921	0.00887146
865.347	0.000576782	0.00320435
867.687	-0.697693	-0.0186493
870.027	0.000479126	0.0088562
872.347	0.000863647	0.00322601
874.687	-0.697723	-0.0186432
877.027	-0.000747681	0.00884399
879.347	0.000799561	0.00324524
881.647	0.000869751	0.00105499