File: Edgar/20240607/20240607/electrodeposition_pulsed_potential_20240607_C/pulses_4000_to_5000.txt
Time (s)	WE(1).Potential (V)	WE(1).Current (A)
3016.76	-0.698669	-0.021283
3019.1	-0.000491333	0.00687164
3021.42	0.000289917	0.00475922
3023.76	-0.698914	-0.0178253
3026.1	0.000299072	0.00707642
3028.42	0.000488281	0.00482147
3030.76	-0.698578	-0.0177917
3033.1	-0.000506592	0.0071048
3035.42	0.000750732	0.00483551
3037.76	-0.697693	-0.0177917
3040.1	0.000204468	0.00710968
3042.42	0.000726318	0.00484375
3044.76	-0.698364	-0.0177856
3047.1	0.000466919	0.00711304
3049.42	0.00067749	0.00484955
3051.76	-0.697906	-0.0177765
3054.1	-0.000524902	0.00711884
3056.42	-0.000262451	0.00486267
3058.76	-0.698883	-0.0177673
3061.1	0.000643921	0.0071109
3063.42	0.000656128	0.00485687
3065.76	-0.697662	-0.0177673
3068.1	-0.000268555	0.00711487
3070.42	-3.05176e-05	0.00486725
3072.76	-0.697632	-0.0177612
3075.1	-0.000390625	0.007117
3077.42	0.000799561	0.00486298
3079.76	-0.697876	-0.0177521
3082.1	0.000210571	0.00710693
3084.42	-0.000344849	0.00487
3086.76	-0.698334	-0.0177582
3089.1	-0.000222778	0.00711334
3091.42	0.000726318	0.00486633
3093.76	-0.6987	-0.017746
3096.1	-0.000366211	0.00711121
3098.42	0.000213623	0.00486572
3100.76	-0.69809	-0.017749
3103.1	-0.000476074	0.00710632
3105.42	0.000701904	0.00486786
3107.76	-0.6987	-0.0177399
3110.1	0.000320435	0.0070993
3112.42	-0.000466919	0.00487183
3114.76	-0.69873	-0.017746
3117.1	-0.000570679	0.00710358
3119.42	0.000323486	0.00487335
3121.76	-0.698792	-0.0177399
3124.1	8.54492e-05	0.00709961
3126.42	-0.000442505	0.00486908
3128.76	-0.698456	-0.017746
3131.1	0.000448608	0.00705994
3133.42	-0.00039978	0.00485291
3135.76	-0.697693	-0.0177704
3138.1	-0.000439453	0.00708099
3140.42	-0.000305176	0.00486481
3142.76	-0.697784	-0.0177582
3145.1	-0.000463867	0.00708405
3147.42	0.000210571	0.00486237
3149.76	-0.698914	-0.017749
3152.1	-0.000482178	0.00708557
3154.42	-0.000436401	0.00487579
3156.76	-0.697723	-0.017749
3159.1	0.000286865	0.00708069
3161.42	-0.000387573	0.00487823
3163.76	-0.698486	-0.0177277
3166.1	-0.000457764	0.00708344
3168.42	0.000720215	0.00487335
3170.76	-0.698486	-0.0177399
3173.1	-0.000595093	0.0070816
3175.42	-0.00027771	0.00488312
3177.76	-0.698486	-0.0177307
3180.1	-0.000500488	0.00708221
3182.42	0.000634766	0.00487885
3184.76	-0.698578	-0.0177246
3187.1	0.000521851	0.00707306
3189.42	-0.000299072	0.00488617
3191.76	-0.697693	-0.0177185
3194.1	0.000683594	0.00707153
3196.42	-1.83105e-05	0.00488831
3198.76	-0.697754	-0.0177216
3201.1	-0.000170898	0.00707642
3203.42	-0.000491333	0.00489166
3205.76	-0.697754	-0.0177216
3208.1	0.000643921	0.00706818
3210.42	0.000717163	0.00486542
3212.76	-0.697937	-0.0176331
3215.1	0.000271606	0.00695831
3217.42	-1.52588e-05	0.00479156
3219.76	-0.698212	-0.0177307
3222.1	-0.000515747	0.00697113
3224.42	-0.000439453	0.00481171
3226.76	-0.697876	-0.0177185
3229.1	-0.000500488	0.00692627
3231.42	0.000119019	0.00477112
3233.76	-0.697937	-0.0177856
3236.1	0.000598145	0.00695435
3238.42	0.000509644	0.00480774
3240.76	-0.698883	-0.0177673
3243.1	0.000488281	0.00700531
3245.42	0.000186157	0.00482971
3247.76	-0.697754	-0.0178101
3250.1	-0.000436401	0.00701782
3252.42	0.000396729	0.00484924
3254.76	-0.698639	-0.0177795
3257.1	-0.000283813	0.00698242
3259.42	0.000674438	0.0048233
3261.76	-0.697662	-0.0177673
3264.1	0.000390625	0.00699066
3266.42	0.000540161	0.00483032
3268.76	-0.698792	-0.017804
3271.1	0.000680542	0.00700256
3273.42	-0.000186157	0.00485291
3275.76	-0.698914	-0.0177948
3278.1	0.000317383	0.00701111
3280.42	-4.88281e-05	0.00486298
3282.76	-0.69873	-0.0177856
3285.1	0.000195313	0.0070166
3287.42	0.000128174	0.00486847
3289.76	-0.698608	-0.0177734
3292.1	-0.000372314	0.0070282
3294.42	-0.000305176	0.0048819
3296.76	-0.697662	-0.0177734
3299.1	7.93457e-05	0.0070282
3301.42	3.05176e-05	0.00488403
3303.76	-0.698822	-0.0177673
3306.1	0.000656128	0.00702332
3308.42	7.93457e-05	0.00488586
3310.76	-0.698822	-0.0177612
3313.1	-0.000454712	0.00702881
3315.42	0.000619507	0.00488647
3317.76	-0.69809	-0.0177612
3320.1	-0.000506592	0.00702789
3322.42	-0.00012207	0.00489197
3324.76	-0.698029	-0.017749
3327.1	0.000619507	0.00702087
3329.42	0.00050354	0.00489563
3331.76	-0.697968	-0.017746
3334.1	0.000357056	0.00701782
3336.42	-0.000128174	0.00489563
3338.76	-0.698425	-0.0177399
3341.1	-0.000234985	0.00702148
3343.42	0.000753784	0.0048938
3345.76	-0.697754	-0.017749
3348.1	-0.000479126	0.00702301
3350.42	0.000671387	0.00489685
3352.76	-0.697784	-0.0177429
3355.1	-0.000149536	0.00701569
3357.42	-0.000320435	0.00490173
3359.76	-0.698212	-0.017746
3362.1	-0.000469971	0.00701904
3364.42	0.00062561	0.00490082
3366.76	-0.697632	-0.0177429
3369.1	0.000338745	0.00700653
3371.42	-0.000250244	0.00490295
3373.76	-0.698242	-0.0177368
3376.1	-0.000299072	0.00701416
3378.42	0.000524902	0.00489899
3380.76	-0.697601	-0.0177368
3383.1	-0.00045166	0.00700836
3385.42	0.000750732	0.00490173
3387.76	-0.697754	-0.0177338
3390.1	-0.00043335	0.00700989
3392.42	-0.00032959	0.00490723
3394.76	-0.69812	-0.0177277
3397.1	-1.83105e-05	0.00700623
3399.42	-5.49316e-05	0.00490631
3401.76	-0.697632	-0.0177307
3404.1	-0.000338745	0.00700592
3406.42	0.00071106	0.00490387
3408.76	-0.698761	-0.0177185
3411.1	0.000518799	0.00699738
3413.42	0.00085144	0.00490662
3415.76	-0.697815	-0.0177277
3418.1	-0.000488281	0.00700348
3420.42	0.000653076	0.00490875
3422.76	-0.697845	-0.0177246
3425.1	-0.000268555	0.00700104
3427.42	0.000738525	0.00490845
3429.76	-0.697693	-0.0177216
3432.1	0.000543213	0.00699188
3434.42	-0.000411987	0.00491791
3436.76	-0.698212	-0.0177216
3439.1	0.00039978	0.00698853
3441.42	-0.000231934	0.00491943
3443.76	-0.698883	-0.0177124
3446.1	-0.000363159	0.00699493
3448.42	0.000317383	0.00491241
3450.76	-0.697601	-0.0177155
3453.1	0.000442505	0.00698303
3455.42	0.000204468	0.00491913
3457.76	-0.697754	-0.0177155
3460.1	0.000646973	0.00698334
3462.42	3.96729e-05	0.00492096
3464.76	-0.69812	-0.0177094
3467.1	0.000656128	0.0069809
3469.42	-0.000134277	0.00491974
3471.76	-0.697784	-0.0177185
3474.1	0.000558472	0.00697723
3476.42	0.000164795	0.00491791
3478.76	-0.697754	-0.0177063
3481.1	0.000674438	0.0069754
3483.42	-0.000430298	0.00492554
3485.76	-0.698944	-0.0177063
3488.1	0.000689697	0.00697632
3490.42	-0.000448608	0.00492432
3492.76	-0.697784	-0.0177063
3495.1	0.000582886	0.00697235
3497.42	0.000598145	0.0049176
3499.76	-0.6987	-0.0176971
3502.1	-0.000469971	0.00697693
3504.42	-0.000436401	0.00492828
3506.76	-0.697693	-0.0176971
3509.1	0.000247192	0.00697205
3511.42	-0.000442505	0.00492889
3513.76	-0.698578	-0.0176849
3516.1	0.000167847	0.00696716
3518.42	0.000552368	0.00492065
3520.76	-0.697571	-0.0176941
3523.1	7.62939e-05	0.0069635
3525.42	-0.000424194	0.00493164
3527.76	-0.69812	-0.0177002
3530.1	-3.05176e-05	0.00696869
3532.42	0.000622559	0.00492462
3534.76	-0.698242	-0.017691
3537.1	-9.15527e-05	0.00696594
3539.42	-0.000418091	0.00493164
3541.76	-0.698914	-0.0176849
3544.1	0.000143433	0.0069577
3546.42	-0.00027771	0.00493561
3548.76	-0.698853	-0.0176788
3551.1	0.000543213	0.00695984
3553.42	0.000152588	0.00493164
3555.76	-0.69873	-0.0176819
3558.1	0.000463867	0.00695831
3560.42	-9.15527e-06	0.00493866
3562.76	-0.697876	-0.0176849
3565.1	0.000646973	0.00695251
3567.42	4.88281e-05	0.00493683
3569.76	-0.697754	-0.0176819
3572.1	0.000595093	0.00695099
3574.42	0.000442505	0.00493927
3576.76	-0.697662	-0.0176819
3579.1	0.000512695	0.00695282
3581.42	0.000692749	0.00493439
3583.76	-0.697754	-0.0176788
3586.1	-0.000494385	0.00695435
3588.42	0.00050354	0.00493469
3590.76	-0.698853	-0.0176727
3593.1	0.000143433	0.00695038
3595.42	0.000653076	0.00493774
3597.76	-0.698059	-0.0176758
3600.1	-4.88281e-05	0.0069458
3602.42	0.000518799	0.0049353
3604.76	-0.697815	-0.0176636
3607.1	0.0006073	0.00694153
3609.42	0.000698853	0.00493958
3611.76	-0.698853	-0.0176666
3614.1	-0.000415039	0.00694427
3616.42	0.000695801	0.00493835
3618.76	-0.698853	-0.0176575
3621.1	-0.00039978	0.00694458
3623.42	-3.05176e-05	0.00494171
3625.76	-0.698639	-0.0176514
3628.1	-0.000442505	0.00694183
3630.42	0.000784302	0.00493988
3632.76	-0.698944	-0.0176575
3635.1	-0.000241089	0.0069339
3637.42	-0.000411987	0.00494873
3639.76	-0.697723	-0.0176605
3642.1	-0.000143433	0.00693726
3644.42	-1.2207e-05	0.00494781
3646.76	-0.698883	-0.0176544
3649.1	0.000408936	0.00692749
3651.42	0.00055542	0.00494385
3653.76	-0.698883	-0.0176483
3656.1	0.000601196	0.00692566
3658.42	0.000717163	0.00494507
3660.76	-0.697693	-0.0176575
3663.1	-0.000305176	0.00692871
3665.42	-0.000442505	0.00494965
3667.76	-0.6987	-0.0176575
3670.1	-0.000448608	0.00693176
3672.42	-0.000408936	0.00495361
3674.76	-0.698669	-0.0176483
3677.1	0.00017395	0.00692261
3679.42	-0.00043335	0.00495453
3681.76	-0.697571	-0.0176483
3684.1	-0.000454712	0.006922
3686.42	-0.000366211	0.00495087
3688.76	-0.697937	-0.0176544
3691.1	-0.000366211	0.00691956
3693.42	-0.000421143	0.00495026
3695.76	-0.69809	-0.0176453
3698.1	0.000244141	0.00691162
3700.42	0.000213623	0.0049527
3702.76	-0.698181	-0.0176056
3705.1	-6.10352e-05	0.00683838
3707.42	0.000643921	0.00488434
3709.76	-0.697693	-0.0176392
3712.1	0.000476074	0.00683594
3714.42	-3.66211e-05	0.00489716
3716.72	-7.32422e-05	0.00368561