File: Edgar/20240607/20240607/electrodeposition_pulsed_potential_20240607_C/pulses_1000_to_2000.txt
Time (s)	WE(1).Potential (V)	WE(1).Current (A)
890.203	-0.697998	-0.0197296
892.543	0.000280762	0.00866699
894.863	1.52588e-05	0.0031781
897.203	-0.698486	-0.0186768
899.543	-0.000128174	0.0087738
901.863	0.000592041	0.00325226
904.203	-0.698761	-0.0186615
906.543	-0.000402832	0.0087738
908.863	-0.000323486	0.00329346
911.203	-0.697968	-0.0186584
913.543	0.000445557	0.0087738
915.863	0.000765991	0.00331329
918.203	-0.697693	-0.0186493
920.543	0.000201416	0.00877686
922.863	0.000872803	0.00333832
925.203	-0.697632	-0.0186401
927.543	0.000241089	0.00875854
929.863	-0.000393677	0.0033667
932.203	-0.698334	-0.018634
934.543	0.00017395	0.00875549
936.863	0.000588989	0.00338348
939.203	-0.697784	-0.0186432
941.543	-0.000637817	0.00875854
943.863	1.52588e-05	0.00340546
946.203	-0.697998	-0.018634
948.543	9.15527e-06	0.00874634
950.863	0.000390625	0.00341797
953.203	-0.69873	-0.018634
955.543	-0.000637817	0.00873718
957.863	0.000119019	0.00344421
960.203	-0.699036	-0.0186218
962.543	0.000204468	0.00872803
964.863	0.000430298	0.00345245
967.203	-0.698334	-0.0186279
969.543	-0.000393677	0.00871582
971.863	0.000802612	0.00346832
974.203	-0.697784	-0.0186279
976.543	0.000408936	0.00869446
978.863	0.000747681	0.00348541
981.203	-0.698212	-0.0186157
983.543	0.000402832	0.00868835
985.863	-0.000473022	0.00350769
988.203	-0.698608	-0.0186279
990.543	0.000186157	0.0086792
992.863	-0.000344849	0.00352142
995.203	-0.697784	-0.0186188
997.543	0.000137329	0.00865784
999.863	-0.000402832	0.00353729
1002.2	-0.697815	-0.0186218
1004.54	8.54492e-05	0.00865479
1006.86	-0.000311279	0.0035495
1009.2	-0.69809	-0.0186188
1011.54	-0.000479126	0.00865784
1013.86	-0.000372314	0.00356598
1016.2	-0.697662	-0.0186188
1018.54	0.000491333	0.00863342
1020.86	0.000405884	0.00357941
1023.2	-0.6987	-0.0186035
1025.54	-0.000808716	0.00863037
1027.86	0.000518799	0.00358978
1030.2	-0.697693	-0.0186066
1032.54	7.62939e-05	0.00860291
1034.86	9.76562e-05	0.00360229
1037.2	-0.698914	-0.0186005
1039.54	-0.000732422	0.00860901
1041.86	-0.000292969	0.00361847
1044.2	-0.69873	-0.0186066
1046.54	0.000488281	0.0085907
1048.86	0.000604248	0.0036264
1051.2	-0.698883	-0.0186005
1053.54	0.000521851	0.00857849
1055.86	-0.000469971	0.00364807
1058.2	-0.698059	-0.0185944
1060.54	-0.000314331	0.00857849
1062.86	0.00055542	0.00365417
1065.2	-0.697632	-0.0185944
1067.54	6.40869e-05	0.00855103
1069.86	-0.000442505	0.0036731
1072.2	-0.697723	-0.0185944
1074.54	0.000469971	0.00854492
1076.86	0.000775146	0.00367767
1079.2	-0.698792	-0.0185883
1081.54	6.40869e-05	0.00854187
1083.86	4.27246e-05	0.00369843
1086.2	-0.698944	-0.0185791
1088.54	-0.000549316	0.00852356
1090.86	0.000604248	0.00369995
1093.2	-0.698395	-0.018573
1095.54	0.000296021	0.00852661
1097.86	0.000115967	0.00371643
1100.2	-0.697693	-0.0185822
1102.54	0.000537109	0.0085083
1104.86	-0.000360107	0.00373413
1107.2	-0.698059	-0.018576
1109.54	-0.000216675	0.0085083
1111.86	-0.000372314	0.00374573
1114.2	-0.697632	-0.018573
1116.54	0.000418091	0.00848389
1118.86	-0.000509644	0.00375641
1121.2	-0.698853	-0.0185608
1123.54	0.000323486	0.00847778
1125.86	-0.000320435	0.00376709
1128.2	-0.698181	-0.018573
1130.54	-0.000692749	0.00846558
1132.86	0.00067749	0.00377228
1135.2	-0.69809	-0.0185547
1137.54	0.000518799	0.00845947
1139.86	0.000701904	0.0037854
1142.2	-0.697632	-0.0185638
1144.54	-0.000726318	0.00845032
1146.86	0.000524902	0.00379272
1149.2	-0.697998	-0.0185638
1151.54	-1.83105e-05	0.00844727
1153.86	5.49316e-05	0.0038089
1156.2	-0.698059	-0.0185425
1158.54	0.000640869	0.00843811
1160.86	-0.000247192	0.00382141
1163.2	-0.6987	-0.0185516
1165.54	-0.00065918	0.0084259
1167.86	3.96729e-05	0.00383301
1170.2	-0.698425	-0.0185425
1172.54	0.000241089	0.00840454
1174.86	0.000723267	0.00383881
1177.2	-0.698883	-0.0185394
1179.54	-0.000549316	0.00840149
1181.86	0.000546265	0.00384674
1184.2	-0.697968	-0.0185303
1186.54	-0.000265503	0.00838928
1188.86	-0.000201416	0.00386597
1191.2	-0.697632	-0.0185394
1193.54	0.000457764	0.00838318
1195.86	0.000750732	0.00386871
1198.2	-0.698303	-0.0185394
1200.54	-0.000393677	0.00837402
1202.86	0.000283813	0.00387939
1205.2	-0.698669	-0.0185181
1207.54	0.000131226	0.00837097
1209.86	0.000234985	0.00389526
1212.2	-0.698914	-0.0185181
1214.54	0.000115967	0.00835266
1216.86	0.000537109	0.00389832
1219.2	-0.698547	-0.018515
1221.54	0.000283813	0.00834656
1223.86	-0.000393677	0.00391357
1226.2	-0.698181	-0.0185181
1228.54	0.00039978	0.00834351
1230.86	-0.000332642	0.00392303
1233.2	-0.698914	-0.0185059
1235.54	0.000497437	0.0083252
1237.86	5.49316e-05	0.00393127
1240.2	-0.698364	-0.0185089
1242.54	0.000497437	0.00831909
1244.86	0.000778198	0.0039325
1247.2	-0.698608	-0.0184967
1249.54	0.0003479	0.00831909
1251.86	0.000787354	0.00394226
1254.2	-0.698914	-0.0185028
1256.54	0.000317383	0.00830078
1258.86	-0.000415039	0.00395874
1261.2	-0.697815	-0.0184998
1263.54	-4.27246e-05	0.00829468
1265.86	-0.000408936	0.0039682
1268.2	-0.697662	-0.0185028
1270.54	0.000424194	0.00828552
1272.86	0.00072937	0.00396759
1275.2	-0.697784	-0.0184967
1277.54	0.000125122	0.00827026
1279.86	-9.15527e-06	0.00397827
1282.2	-0.697571	-0.0184875
1284.54	-0.00062561	0.00826111
1286.86	0.00027771	0.0039859
1289.2	-0.697845	-0.0184784
1291.54	-0.000747681	0.00826111
1293.86	-0.000408936	0.00400177
1296.2	-0.697632	-0.0184875
1298.54	-0.000643921	0.00824585
1300.86	0.000674438	0.00400452
1303.2	-0.697937	-0.0184753
1305.54	0.000439453	0.00823975
1307.86	0.000567627	0.00401123
1310.2	-0.697662	-0.0184723
1312.54	0.000457764	0.00823364
1314.86	-0.000421143	0.00402832
1317.2	-0.697693	-0.0184692
1319.54	0.00022583	0.00823059
1321.86	-0.000384521	0.00403595
1324.2	-0.697601	-0.0184662
1326.54	-0.000753784	0.00821838
1328.86	-0.000408936	0.00404419
1331.2	-0.6987	-0.018457
1333.54	0.000241089	0.00820007
1335.86	0.000744629	0.00404388
1338.2	-0.698578	-0.0184326
1340.54	0.000375366	0.00819092
1342.86	0.000167847	0.0040509
1345.2	-0.697632	-0.0184448
1347.54	0.000213623	0.00818481
1349.86	0.000662231	0.00405731
1352.2	-0.697723	-0.0184692
1354.54	-0.000543213	0.00818481
1356.86	-0.000421143	0.00407013
1359.2	-0.69754	-0.0184631
1361.54	0.000268555	0.00819092
1363.86	-0.000314331	0.00407654
1366.2	-0.6987	-0.0184509
1368.54	-0.000186157	0.00817871
1370.86	-0.000445557	0.00408722
1373.2	-0.698364	-0.018457
1375.54	-9.46045e-05	0.00817261
1377.86	-2.44141e-05	0.00409088
1380.2	-0.698914	-0.0184357
1382.54	0.000332642	0.0081604
1384.86	0.000311279	0.00410065
1387.2	-0.698181	-0.0184387
1389.54	-0.000656128	0.00815735
1391.86	0.000268555	0.00410919
1394.2	-0.697693	-0.0184326
1396.54	0.000616455	0.00814514
1398.86	-0.000289917	0.00411804
1401.2	-0.697754	-0.0184357
1403.54	-0.000360107	0.00813293
1405.86	-0.000439453	0.00412445
1408.2	-0.697662	-0.0184296
1410.54	-0.000427246	0.00813599
1412.86	-0.000219727	0.00412933
1415.2	-0.698395	-0.0184265
1417.54	-0.000735474	0.00812378
1419.86	0.000210571	0.00413971
1422.2	-0.698059	-0.0184235
1424.54	-0.000115967	0.00812378
1426.86	-0.000134277	0.00414276
1429.2	-0.698242	-0.0184174
1431.54	-0.000695801	0.00811157
1433.86	-0.000439453	0.00415344
1436.2	-0.697815	-0.0184113
1438.54	0.000506592	0.00810242
1440.86	0.000784302	0.00415375
1443.2	-0.698364	-0.018396
1445.54	0.000320435	0.00809021
1447.86	0.000424194	0.00415863
1450.2	-0.697662	-0.0184052
1452.54	0.00050354	0.00808411
1454.86	0.000814819	0.00416931
1457.2	-0.698883	-0.018396
1459.54	-0.000460815	0.00807495
1461.86	0.000772095	0.0041745
1464.2	-0.698883	-0.0183838
1466.54	0.000335693	0.00808411
1468.86	-0.00027771	0.00418945
1471.2	-0.697693	-0.0183929
1473.54	-0.000442505	0.008078
1475.86	-0.000427246	0.00419525
1478.2	-0.697968	-0.0183807
1480.54	-0.000698853	0.0080658
1482.86	-7.32422e-05	0.00420288
1485.2	-0.698273	-0.0183838
1487.54	-0.000708008	0.00805664
1489.86	0.000805664	0.00420319
1492.2	-0.698578	-0.0183624
1494.54	-0.000509644	0.00804138
1496.86	0.000799561	0.00420837
1499.2	-0.698517	-0.0183594
1501.54	-0.000143433	0.00803528
1503.86	-0.000427246	0.00422272
1506.2	-0.698883	-0.0183533
1508.54	9.76562e-05	0.00802612
1510.86	0.000564575	0.00422028
1513.2	-0.69809	-0.0183533
1515.54	0.000466919	0.00802307
1517.86	-0.00045166	0.0042334
1520.2	-0.698029	-0.0183502
1522.54	-0.000735474	0.00802002
1524.86	0.000650024	0.00423523
1527.2	-0.698608	-0.0183411
1529.54	-0.00071106	0.00801697
1531.86	-4.27246e-05	0.00424469
1534.2	-0.698059	-0.018338
1536.54	0.000170898	0.00800171
1538.86	-0.00039978	0.00425079
1541.2	-0.69873	-0.018335
1543.54	-0.000299072	0.00800781
1545.86	0.000289917	0.00425171
1548.2	-0.697906	-0.0183472
1550.54	0.000613403	0.00799561
1552.86	-0.000485229	0.00426422
1555.2	-0.69809	-0.0183258
1557.54	0.000527954	0.00798645
1559.86	-0.000189209	0.0042691
1562.2	-0.697906	-0.018335
1564.54	0.000463867	0.00797729
1566.86	0.000238037	0.00427063
1569.2	-0.698212	-0.0183228
1571.54	0.00017395	0.00796509
1573.86	0.000387573	0.00427368
1576.2	-0.698914	-0.0183167
1578.54	0.000427246	0.00797424
1580.86	0.000131226	0.00428497
1583.2	-0.698822	-0.0183105
1585.54	0.000366211	0.00795593
1587.86	0.00015564	0.00428772
1590.16	-0.000405884	0.00234344