File: Edgar/20240607/20240607/electrodeposition_pulsed_potential_20240607_C/pulses_2000_to_3000.txt
Time (s)	WE(1).Potential (V)	WE(1).Current (A)
1599.18	-0.698334	-0.0206482
1601.52	0.000479126	0.00779114
1603.84	0.00032959	0.00422546
1606.18	-0.698486	-0.0183411
1608.52	-0.000549316	0.007901
1610.84	0.000387573	0.00427002
1613.18	-0.697754	-0.0183228
1615.52	-0.000643921	0.00791321
1617.84	0.000750732	0.00429138
1620.18	-0.698425	-0.0182953
1622.52	7.32422e-05	0.00791931
1624.84	0.000131226	0.00430389
1627.18	-0.698669	-0.0182983
1629.52	-5.79834e-05	0.00791321
1631.84	0.000170898	0.00431274
1634.18	-0.698822	-0.0182831
1636.52	-0.000604248	0.00791016
1638.84	0.000741577	0.00431854
1641.18	-0.698212	-0.018277
1643.52	0.000405884	0.0079071
1645.84	0.000164795	0.00432343
1648.18	-0.697601	-0.01828
1650.52	-0.000692749	0.0079071
1652.84	3.05176e-06	0.0043335
1655.18	-0.6987	-0.018277
1657.52	0.000592041	0.007901
1659.84	-7.01904e-05	0.0043399
1662.18	-0.698578	-0.0182678
1664.52	0.000448608	0.00788574
1666.84	-1.2207e-05	0.0043457
1669.18	-0.698761	-0.0182587
1671.52	-0.000411987	0.00788574
1673.84	-0.000476074	0.00435486
1676.18	-0.698364	-0.0182648
1678.52	-0.000662231	0.00788574
1680.84	0.000762939	0.00435211
1683.18	-0.697815	-0.0182465
1685.52	0.000164795	0.00787354
1687.84	-2.74658e-05	0.00436462
1690.18	-0.698517	-0.0182556
1692.52	-8.23975e-05	0.00787964
1694.84	-0.00010376	0.00436951
1697.18	-0.697845	-0.0182434
1699.52	0.000396729	0.00786133
1701.84	0.000564575	0.00437042
1704.18	-0.69809	-0.0182343
1706.52	0.000405884	0.00785217
1708.84	0.000164795	0.00437805
1711.18	-0.69754	-0.0182404
1713.52	-0.000512695	0.00785828
1715.84	4.57764e-05	0.00437958
1718.18	-0.698029	-0.0182281
1720.52	-0.00065918	0.00784912
1722.84	0.000524902	0.00438263
1725.18	-0.697784	-0.0182312
1727.52	0.000521851	0.00784302
1729.84	-0.000213623	0.00438843
1732.18	-0.698761	-0.018219
1734.52	0.000460815	0.00783081
1736.84	0.000814819	0.00438934
1739.18	-0.697876	-0.018219
1741.52	-0.000515747	0.00783691
1743.84	-0.000210571	0.00440033
1746.18	-0.698822	-0.0182129
1748.52	0.000418091	0.00782776
1750.84	-0.000436401	0.00440491
1753.18	-0.69873	-0.0182129
1755.52	0.000424194	0.00781555
1757.84	0.000247192	0.00440521
1760.18	-0.698578	-0.0182037
1762.52	0.00050354	0.0078064
1764.84	0.000131226	0.00440613
1767.18	-0.698395	-0.0182007
1769.52	0.000463867	0.0078064
1771.84	-0.000442505	0.00441711
1774.18	-0.698578	-0.0181946
1776.52	7.62939e-05	0.00779114
1778.84	0.000448608	0.00441772
1781.18	-0.697906	-0.0181915
1783.52	4.27246e-05	0.00779724
1785.84	-0.000418091	0.00442749
1788.18	-0.698853	-0.0181885
1790.52	-0.000546265	0.00778809
1792.84	9.76562e-05	0.00443115
1795.18	-0.698029	-0.0181763
1797.52	0.000402832	0.00778198
1799.84	0.000415039	0.00442688
1802.18	-0.698364	-0.0181854
1804.52	-0.000726318	0.00778198
1806.84	0.000491333	0.00443604
1809.18	-0.697998	-0.0181854
1811.52	0.000390625	0.00777588
1813.84	0.000482178	0.00443787
1816.18	-0.698883	-0.0181702
1818.52	-0.000167847	0.00776367
1820.84	-0.000326538	0.00444458
1823.18	-0.698059	-0.0181732
1825.52	-0.000543213	0.00776062
1827.84	0.00065918	0.00444061
1830.18	-0.698792	-0.0181641
1832.52	0.000531006	0.00774841
1834.84	0.000201416	0.00444519
1837.18	-0.697723	-0.0181793
1839.52	-0.000567627	0.00775452
1841.84	0.000341797	0.004453125
1844.18	-0.69809	-0.0181671
1846.52	-0.000357056	0.00775146
1848.84	0.000738525	0.00445251
1851.18	-0.697784	-0.0181671
1853.52	0.000320435	0.00773926
1855.84	0.000790405	0.00445831
1858.18	-0.6987	-0.018161
1860.52	-0.000439453	0.00772705
1862.84	0.00071106	0.0044635
1865.18	-0.698639	-0.0181519
1867.52	-0.00045166	0.0077301
1869.84	-0.000302124	0.00447266
1872.18	-0.697998	-0.0181519
1874.52	-0.000393677	0.0077301
1876.84	0.000784302	0.0044754
1879.18	-0.697784	-0.0181488
1881.52	0.000482178	0.0077179
1883.84	0.000564575	0.00447815
1886.18	-0.698883	-0.0181335
1888.52	0.000463867	0.00771179
1890.84	-0.000253296	0.00448792
1893.18	-0.698608	-0.0181305
1895.52	-0.000613403	0.00771484
1897.84	0.000509644	0.00448517
1900.18	-0.697937	-0.0181305
1902.52	-0.000680542	0.00770874
1904.84	-0.000418091	0.00449432
1907.18	-0.697845	-0.0181305
1909.52	-0.000717163	0.00770264
1911.84	2.44141e-05	0.0044989
1914.18	-0.697754	-0.0181274
1916.52	-0.000704956	0.00769653
1918.84	-0.000384521	0.00450439
1921.18	-0.697754	-0.0181183
1923.52	-0.000671387	0.00769348
1925.84	0.000732422	0.00449951
1928.18	-0.697723	-0.0181213
1930.52	-8.23975e-05	0.00767822
1932.84	-0.000299072	0.00450775
1935.18	-0.697754	-0.0181183
1937.52	-0.000408936	0.00768738
1939.84	-0.00039978	0.00451263
1942.18	-0.697906	-0.0181213
1944.52	-0.000375366	0.00767517
1946.84	0.000701904	0.00450958
1949.18	-0.698883	-0.0181061
1951.52	5.18799e-05	0.00766907
1953.84	0.000811768	0.00451233
1956.18	-0.6987	-0.0180969
1958.52	0.000354004	0.00765991
1960.84	4.57764e-05	0.00452118
1963.18	-0.698883	-0.0180878
1965.52	-0.000692749	0.0076416
1967.84	0.000643921	0.00451172
1970.18	-0.697662	-0.0181061
1972.52	0.000170898	0.00762634
1974.84	-0.000180054	0.0045224
1977.18	-0.697693	-0.0181458
1979.52	-0.000430298	0.00765991
1981.84	0.000714111	0.00452606
1984.18	-0.698944	-0.0181396
1986.52	-0.000189209	0.00765076
1988.84	0.000332642	0.00452698
1991.18	-0.698273	-0.0181274
1993.52	-0.000680542	0.00765381
1995.84	0.000738525	0.00453094
1998.18	-0.698853	-0.0181244
2000.52	0.000497437	0.0076416
2002.84	-0.000476074	0.00454071
2005.18	-0.698639	-0.0181183
2007.52	0.000219727	0.00763855
2009.84	0.000457764	0.00453796
2012.18	-0.698608	-0.0181244
2014.52	-0.000640869	0.0076416
2016.84	0.000549316	0.00454285
2019.18	-0.698212	-0.0181274
2021.52	0.000518799	0.0076355
2023.84	0.000735474	0.00454468
2026.18	-0.697693	-0.0181213
2028.52	0.000415039	0.00762634
2030.84	-0.000231934	0.00455688
2033.18	-0.697968	-0.0181061
2035.52	0.000588989	0.00762634
2037.84	-0.000262451	0.00455933
2040.18	-0.698792	-0.0181
2042.52	-0.000253296	0.00761414
2044.84	-0.000415039	0.00456268
2047.18	-0.698639	-0.0181061
2049.52	0.000219727	0.00762024
2051.84	-0.000518799	0.00456543
2054.18	-0.698944	-0.0180969
2056.52	-0.00043335	0.00762329
2058.84	0.000701904	0.00456329
2061.18	-0.69873	-0.0180939
2063.52	-0.00065918	0.00761108
2065.84	-0.000418091	0.00457214
2068.18	-0.698395	-0.0180878
2070.52	3.05176e-06	0.00760193
2072.84	0.000390625	0.0045697
2075.18	-0.69873	-0.0180878
2077.52	9.15527e-06	0.00759277
2079.84	-2.13623e-05	0.00457672
2082.18	-0.69812	-0.0180908
2084.52	-0.000671387	0.00758972
2086.84	0.000253296	0.00457611
2089.18	-0.698639	-0.0180756
2091.52	-0.00010376	0.00759583
2093.84	-0.000314331	0.00458374
2096.18	-0.697998	-0.0180847
2098.52	0.000366211	0.00758362
2100.84	0.000192261	0.00458618
2103.18	-0.698944	-0.0180695
2105.52	-0.000698853	0.00758057
2107.84	-0.000418091	0.00459015
2110.18	-0.697693	-0.0180695
2112.52	0.000463867	0.00756836
2114.84	-0.000180054	0.00459076
2117.18	-0.697784	-0.0180725
2119.52	0.000427246	0.00757446
2121.84	-4.27246e-05	0.00459656
2124.18	-0.697662	-0.0180695
2126.52	-0.000668335	0.00756836
2128.84	-0.00020752	0.00459869
2131.18	-0.698761	-0.0180511
2133.52	0.000192261	0.00755615
2135.84	0.000170898	0.004599
2138.18	-0.697876	-0.0180634
2140.52	0.000436401	0.00755615
2142.84	0.000704956	0.00459839
2145.18	-0.697784	-0.0180542
2147.52	-0.000109863	0.00755615
2149.84	0.000848389	0.00460114
2152.18	-0.698914	-0.0180511
2154.52	-0.000439453	0.00753784
2156.84	-0.000213623	0.00460693
2159.18	-0.698761	-0.0180389
2161.52	0.000497437	0.00753784
2163.84	-5.79834e-05	0.00460876
2166.18	-0.697906	-0.018045
2168.52	-0.000378418	0.00753479
2170.84	0.000265503	0.004609375
2173.18	-0.697845	-0.0180359
2175.52	0.000195313	0.00753784
2177.84	-0.000402832	0.00461456
2180.18	-0.697601	-0.0180389
2182.52	-0.000543213	0.00752563
2184.84	0.000698853	0.00461334
2187.18	-0.697784	-0.0180359
2189.52	-0.000616455	0.00753174
2191.84	-0.000402832	0.00462433
2194.18	-0.698669	-0.0180298
2196.52	-8.54492e-05	0.00753174
2198.84	-0.000112915	0.00462677
2201.18	-0.698303	-0.0180176
2203.52	-0.000469971	0.00751953
2205.84	0.000640869	0.00462311
2208.18	-0.698761	-0.0180176
2210.52	-0.000180054	0.00752563
2212.84	0.000341797	0.00462738
2215.18	-0.698303	-0.0180237
2217.52	-0.000582886	0.00751953
2219.84	0.000134277	0.00463135
2222.18	-0.698151	-0.0180084
2224.53	0.000512695	0.00750732
2226.85	-0.000473022	0.00464142
2229.19	-0.698944	-0.0180084
2231.53	0.000244141	0.00750397
2233.85	-0.000448608	0.00464447
2236.19	-0.697662	-0.0180054
2238.53	-0.000286865	0.00749908
2240.85	-0.000274658	0.00464813
2243.19	-0.698914	-0.0179993
2245.53	-0.000552368	0.00749817
2247.85	-0.000363159	0.00465179
2250.19	-0.698364	-0.0180084
2252.53	0.000717163	0.0074884
2254.85	-0.000170898	0.00465271
2257.19	-0.698364	-0.0179932
2259.53	0.00020752	0.00748413
2261.85	0.000704956	0.00464874
2264.19	-0.698608	-0.0179932
2266.53	0.000601196	0.00747803
2268.85	-3.05176e-06	0.00465942
2271.19	-0.698639	-0.0179901
2273.53	-0.000500488	0.00748444
2275.85	0.00050354	0.00465393
2278.19	-0.69873	-0.0179871
2280.53	5.18799e-05	0.00747742
2282.85	-0.000106812	0.00466431
2285.19	-0.698853	-0.0179779
2287.53	-0.000524902	0.0074646
2289.85	-0.000350952	0.00465302
2292.19	-0.698456	-0.0179901
2294.53	-7.62939e-05	0.00745697
2296.85	-3.35693e-05	0.0046582
2299.15	-6.71387e-05	0.00302826