File: Edgar/20240607/20240607/electrodeposition_pulsed_potential_20240607_C/pulses_3000_to_4000.txt
Time (s)	WE(1).Potential (V)	WE(1).Current (A)
2307.95	-0.698486	-0.0210297
2310.29	0.000146484	0.007265625
2312.61	-0.000183105	0.00459412
2314.95	-0.697937	-0.0180298
2317.29	-0.000460815	0.00740631
2319.61	0.000616455	0.00463623
2321.95	-0.697754	-0.0179993
2324.29	0.000622559	0.0074173
2326.61	-0.000427246	0.00465973
2328.95	-0.697937	-0.0179901
2331.29	0.000393677	0.00742615
2333.61	-0.000384521	0.00467041
2335.95	-0.697693	-0.017984
2338.29	-0.000128174	0.00743317
2340.61	-0.000439453	0.00467529
2342.95	-0.69873	-0.0179718
2345.29	-0.00038147	0.00743164
2347.61	0.000741577	0.00467316
2349.95	-0.697845	-0.0179718
2352.29	7.62939e-05	0.00742584
2354.61	-0.000314331	0.00468628
2356.95	-0.697784	-0.0179596
2359.29	0.000595093	0.00742218
2361.61	0.000668335	0.0046814
2363.95	-0.697754	-0.0179565
2366.29	-0.000338745	0.00742432
2368.61	0.000598145	0.00468658
2370.95	-0.698517	-0.0179474
2373.29	0.000610352	0.0074176
2375.61	0.000457764	0.00468872
2377.95	-0.697693	-0.0179443
2380.29	0.000482178	0.00741577
2382.61	-0.000439453	0.00469971
2384.95	-0.697998	-0.0179504
2387.29	0.000479126	0.00741577
2389.61	0.000534058	0.00469604
2391.95	-0.698853	-0.0179382
2394.29	-0.000201416	0.00741669
2396.61	0.000424194	0.00469696
2398.95	-0.698822	-0.0179352
2401.29	0.00065918	0.00740479
2403.61	-0.000366211	0.00470337
2405.95	-0.69873	-0.0179291
2408.29	-0.000314331	0.00740845
2410.61	0.000744629	0.00470123
2412.95	-0.698456	-0.0179291
2415.29	0.000698853	0.00739929
2417.61	-9.15527e-05	0.00470856
2419.95	-0.698669	-0.0179169
2422.29	-9.76562e-05	0.00740112
2424.61	-0.000418091	0.00471313
2426.95	-0.697693	-0.0179291
2429.29	-0.000454712	0.00739746
2431.61	-2.74658e-05	0.00471619
2433.95	-0.697632	-0.0179169
2436.29	0.000344849	0.00738647
2438.61	0.00065918	0.00471039
2440.95	-0.697662	-0.017923
2443.29	-0.000326538	0.00739166
2445.61	0.000137329	0.00471527
2447.95	-0.698456	-0.0179077
2450.29	0.000622559	0.00738007
2452.61	-9.46045e-05	0.00471497
2454.95	-0.698608	-0.0179077
2457.29	0.000192261	0.00738373
2459.61	-8.23975e-05	0.00472351
2461.95	-0.698944	-0.0179016
2464.29	-0.000488281	0.00737946
2466.61	0.000323486	0.00471924
2468.95	-0.697937	-0.0179108
2471.29	-0.000408936	0.00737762
2473.61	0.000610352	0.00472076
2475.95	-0.698944	-0.0178955
2478.29	-0.000534058	0.00737305
2480.61	0.000723267	0.00472229
2482.95	-0.698212	-0.0179047
2485.29	0.000634766	0.00736328
2487.61	-0.00039978	0.00473114
2489.95	-0.698547	-0.0178925
2492.29	-0.000259399	0.00736511
2494.61	0.000762939	0.00472595
2496.95	-0.698792	-0.0178925
2499.29	-0.000271606	0.00736176
2501.61	-0.000509644	0.00473389
2503.95	-0.699005	-0.0178925
2506.29	-0.000421143	0.00735962
2508.61	0.00057373	0.00472992
2510.95	-0.697784	-0.0178925
2513.29	0.0006073	0.00734833
2515.61	0.000726318	0.00473358
2517.95	-0.698425	-0.0178802
2520.29	-0.000268555	0.00734955
2522.61	0.000650024	0.00473816
2524.95	-0.697754	-0.0178864
2527.29	0.000579834	0.00733948
2529.61	-0.00022583	0.00474182
2531.95	-0.697723	-0.0178864
2534.29	-0.000131226	0.00734039
2536.61	-0.000402832	0.00474518
2538.95	-0.698914	-0.0178741
2541.29	-0.00032959	0.007341
2543.61	-0.000100708	0.00474823
2545.95	-0.697693	-0.0178741
2548.29	0.000219727	0.0073288
2550.61	0.000735474	0.00474274
2552.95	-0.698181	-0.0178772
2555.29	0.000326538	0.00732513
2557.61	-0.000167847	0.00475067
2559.95	-0.698517	-0.0178619
2562.29	0.000543213	0.00732178
2564.61	-0.000415039	0.00475281
2566.95	-0.698151	-0.017865
2569.29	-3.05176e-05	0.00732391
2571.61	-0.000115967	0.00475037
2573.95	-0.69809	-0.0178619
2576.29	7.93457e-05	0.00732086
2578.61	0.000616455	0.0047525
2580.95	-0.698822	-0.0178497
2583.29	0.000613403	0.00731201
2585.61	-0.000442505	0.00475861
2587.95	-0.698914	-0.0178497
2590.29	-0.000515747	0.00731689
2592.61	-0.000299072	0.00476318
2594.95	-0.698029	-0.0178436
2597.29	-0.000408936	0.00730835
2599.61	0.000250244	0.00475769
2601.95	-0.697723	-0.0178467
2604.29	-0.000314331	0.00730743
2606.61	0.000643921	0.00476013
2608.95	-0.697968	-0.0178467
2611.29	-0.000222778	0.00730347
2613.61	-0.000268555	0.0047699
2615.95	-0.698212	-0.0178375
2618.29	0.000457764	0.0072934
2620.61	0.000741577	0.00476257
2622.95	-0.697693	-0.0178467
2625.29	0.000390625	0.00729492
2627.61	0.000125122	0.0047699
2629.95	-0.69873	-0.0178345
2632.29	-0.000427246	0.00729675
2634.61	-0.000473022	0.00477203
2636.95	-0.697723	-0.0178314
2639.29	0.000588989	0.00728455
2641.61	0.000256348	0.00476898
2643.95	-0.697693	-0.0178314
2646.29	-0.000521851	0.00728912
2648.61	-0.00043335	0.00477722
2650.95	-0.698364	-0.0178223
2653.29	0.000558472	0.00727844
2655.61	0.000653076	0.00477692
2657.95	-0.697693	-0.0178223
2660.29	-0.000585937	0.00728241
2662.61	0.000143433	0.004776
2664.95	-0.697723	-0.0178192
2667.29	0.000424194	0.00727173
2669.61	-0.000439453	0.00478424
2671.95	-0.697662	-0.0178192
2674.29	-0.000146484	0.00727539
2676.61	0.000393677	0.00478363
2678.95	-0.699005	-0.0178192
2681.29	-0.000100708	0.00727417
2683.61	0.000375366	0.0047818
2685.95	-0.6987	-0.0178162
2688.29	-0.000479126	0.00726929
2690.61	-0.000100708	0.00478638
2692.95	-0.697723	-0.0178101
2695.29	0.000640869	0.00725891
2697.61	0.000302124	0.00478333
2699.95	-0.698334	-0.017804
2702.29	0.00022583	0.00725708
2704.61	-4.57764e-05	0.00479218
2706.95	-0.697754	-0.017807
2709.29	0.000384521	0.00725616
2711.61	-0.000250244	0.00479553
2713.95	-0.698212	-0.0178131
2716.29	0.000665283	0.0072522
2718.61	-0.000143433	0.00479279
2720.95	-0.697601	-0.017804
2723.29	-0.000299072	0.00725555
2725.61	-0.00017395	0.00479675
2727.95	-0.698669	-0.0177948
2730.29	-0.000292969	0.0072525
2732.61	0.000720215	0.00479309
2734.95	-0.698883	-0.0177917
2737.29	0.00057373	0.00723999
2739.61	-0.000469971	0.00480377
2741.95	-0.698486	-0.0177856
2744.29	-0.00055542	0.00724518
2746.61	-0.000442505	0.00480377
2748.95	-0.697754	-0.0177948
2751.29	0.000646973	0.0072348
2753.61	0.000604248	0.00480133
2755.95	-0.698151	-0.0177887
2758.29	0.000366211	0.0072348
2760.61	0.000430298	0.00479919
2762.95	-0.697601	-0.0177826
2765.29	0.000210571	0.00718018
2767.61	-0.000274658	0.00477112
2769.95	-0.698853	-0.017807
2772.29	0.000125122	0.00718292
2774.61	-0.000457764	0.00476868
2776.95	-0.69812	-0.0178375
2779.29	-0.00050354	0.00721649
2781.61	0.000799561	0.00477753
2783.95	-0.697845	-0.017865
2786.29	-0.000302124	0.00721558
2788.61	0.000183105	0.00479065
2790.95	-0.698059	-0.0178619
2793.29	0.000531006	0.00721649
2795.61	-0.000415039	0.0047995
2797.95	-0.698547	-0.0178375
2800.29	9.76562e-05	0.00722168
2802.61	-0.000479126	0.0048056
2804.95	-0.699005	-0.0178345
2807.29	-0.00027771	0.0072168
2809.61	-0.000146484	0.00480927
2811.95	-0.697998	-0.0178314
2814.29	-0.000335693	0.00722015
2816.61	-0.000424194	0.00481262
2818.95	-0.698669	-0.0178192
2821.29	0.000125122	0.0072171
2823.61	0.000622559	0.00480743
2825.95	-0.699005	-0.0178223
2828.29	0.000387573	0.00721649
2830.61	-0.000418091	0.00481812
2832.95	-0.698578	-0.0178162
2835.29	0.000579834	0.00720917
2837.61	0.000750732	0.00481323
2839.95	-0.698761	-0.0178101
2842.29	-0.000515747	0.00721161
2844.61	-0.000259399	0.00481842
2846.95	-0.697632	-0.0178131
2849.29	-0.000283813	0.00720398
2851.61	0.000613403	0.00481476
2853.95	-0.698395	-0.0178223
2856.29	0.000238037	0.00720093
2858.61	0.00072937	0.00481842
2860.95	-0.698914	-0.017807
2863.29	-0.000524902	0.0072049
2865.61	-0.000338745	0.00482483
2867.95	-0.698303	-0.0178009
2870.29	-0.000509644	0.00720245
2872.61	0.000656128	0.00482239
2874.96	-0.697876	-0.0178101
2877.3	0.000488281	0.00719269
2879.62	0.000564575	0.00482544
2881.96	-0.698029	-0.0177979
2884.3	0.000579834	0.00718994
2886.62	-0.000335693	0.00483398
2888.96	-0.6987	-0.0177917
2891.3	0.000469971	0.0071875
2893.62	-0.000296021	0.00483551
2895.96	-0.698853	-0.0177948
2898.3	-0.000421143	0.00719269
2900.62	0.000531006	0.00483368
2902.96	-0.697723	-0.0177399
2905.3	-0.000592041	0.00709412
2907.62	0.000106812	0.00475861
2909.96	-0.698517	-0.017807
2912.3	0.00050354	0.0070816
2914.62	0.000189209	0.00477753
2916.96	-0.697815	-0.0178741
2919.3	-0.000491333	0.0071402
2921.62	-0.000485229	0.00479797
2923.96	-0.698822	-0.0178406
2926.3	-3.96729e-05	0.00715118
2928.62	0.000756836	0.00480499
2930.96	-0.697784	-0.0178345
2933.3	-0.000497437	0.00715515
2935.62	-0.000448608	0.00482117
2937.96	-0.69809	-0.0178284
2940.3	0.000411987	0.00715271
2942.62	0.000372314	0.00482117
2944.96	-0.698212	-0.0178101
2947.3	0.000540161	0.00715485
2949.62	0.000112915	0.00483154
2951.96	-0.698914	-0.017807
2954.3	0.000387573	0.00715424
2956.62	-0.000164795	0.00483276
2958.96	-0.698151	-0.0177948
2961.3	7.93457e-05	0.00715424
2963.62	-0.000375366	0.00483978
2965.96	-0.698914	-0.0177979
2968.3	-0.000372314	0.00715607
2970.62	-0.000436401	0.00484283
2972.96	-0.697662	-0.0178009
2975.3	0.000634766	0.00714996
2977.62	0.000338745	0.00483795
2979.96	-0.697601	-0.0177948
2982.3	0.000546265	0.007146
2984.62	5.49316e-05	0.00484314
2986.96	-0.698883	-0.0177826
2989.3	0.000387573	0.00714752
2991.62	-0.000164795	0.0048468
2993.96	-0.698303	-0.0177948
2996.3	0.000582886	0.0071402
2998.62	-0.000137329	0.00485107
3000.96	-0.697754	-0.0177979
3003.3	-0.000463867	0.0071463
3005.62	0.000140381	0.0048468
3007.92	-0.000286865	0.00345551