File: Edgar/20240607/20240607/electrodeposition_pulsed_potential_20240607_C/pulses_5000_to_6000.txt
Time (s)	WE(1).Potential (V)	WE(1).Current (A)
3725.53	-0.698212	-0.0214569
3727.87	7.62939e-05	0.00651581
3730.19	0.000463867	0.00482361
3732.53	-0.6987	-0.0177246
3734.87	-0.000424194	0.00682739
3737.19	-0.000387573	0.00490509
3739.53	-0.698486	-0.0176758
3741.87	0.000534058	0.00685547
3744.19	-0.000100708	0.00492493
3746.53	-0.697784	-0.0176636
3748.87	-0.000119019	0.00687317
3751.19	0.000708008	0.00493622
3753.53	-0.69873	-0.0176514
3755.87	0.0006073	0.00687622
3758.19	0.000640869	0.00494324
3760.53	-0.698944	-0.0176422
3762.87	0.000466919	0.00688141
3765.19	0.000582886	0.004953
3767.53	-0.698608	-0.01763
3769.87	0.000637817	0.00688049
3772.19	-0.00043335	0.00496033
3774.53	-0.698822	-0.0176239
3776.87	-0.00039978	0.00688843
3779.19	-0.000375366	0.00496429
3781.53	-0.697693	-0.01763
3783.87	0.000634766	0.00688416
3786.19	0.000567627	0.00496277
3788.53	-0.698853	-0.0176239
3790.87	-0.000473022	0.00689087
3793.19	0.000634766	0.00496185
3795.53	-0.697723	-0.0176178
3797.87	0.000115967	0.00688385
3800.19	0.000802612	0.00496429
3802.53	-0.698273	-0.0176086
3804.87	0.000506592	0.00687988
3807.19	-0.000262451	0.00497162
3809.53	-0.697723	-0.0176147
3811.87	3.66211e-05	0.00688324
3814.19	-0.000350952	0.00497131
3816.53	-0.698853	-0.0176056
3818.87	-0.000143433	0.00688202
3821.19	0.000167847	0.00496826
3823.53	-0.69809	-0.0176086
3825.87	-0.000421143	0.00688354
3828.19	0.000656128	0.00496826
3830.53	-0.698578	-0.0176025
3832.87	0.00050354	0.006875
3835.19	0.000640869	0.00496704
3837.53	-0.698853	-0.0176056
3839.87	0.000430298	0.00687836
3842.19	0.000735474	0.0049707
3844.53	-0.698456	-0.0176056
3846.87	-0.000384521	0.0068808
3849.19	-0.000234985	0.0049762
3851.53	-0.697723	-0.0176056
3853.87	-0.000299072	0.00687561
3856.19	-0.000256348	0.00497894
3858.53	-0.6987	-0.0176025
3860.87	0.000234985	0.00686951
3863.19	0.000219727	0.00497467
3865.53	-0.697968	-0.0176056
3867.87	0.000552368	0.00686737
3870.19	-0.000466919	0.00498047
3872.53	-0.698486	-0.0175903
3874.87	0.000732422	0.00686737
3877.19	2.13623e-05	0.00498138
3879.53	-0.698395	-0.0175995
3881.87	0.000372314	0.0068689
3884.19	2.13623e-05	0.00497925
3886.53	-0.698425	-0.0175964
3888.87	-0.000323486	0.00687134
3891.19	0.000714111	0.00497833
3893.53	-0.698395	-0.0175964
3895.87	0.0006073	0.00686188
3898.19	-0.00043335	0.00498596
3900.53	-0.697754	-0.0175934
3902.87	-0.000491333	0.00686676
3905.19	9.46045e-05	0.00498016
3907.53	-0.698914	-0.0175781
3909.87	0.000619507	0.00686188
3912.19	-0.000170898	0.00498535
3914.53	-0.697815	-0.0175842
3916.87	0.000592041	0.00685944
3919.19	0.000216675	0.0049826
3921.53	-0.698212	-0.0175934
3923.87	-0.000100708	0.0068573
3926.19	0.000247192	0.00498657
3928.53	-0.697968	-0.0175751
3930.87	0.000619507	0.00685455
3933.19	-0.000314331	0.00499146
3935.53	-0.697693	-0.0175812
3937.87	0.000234985	0.00685394
3940.19	0.00067749	0.00498688
3942.53	-0.697723	-0.0175781
3944.87	-0.000454712	0.00685913
3947.19	0.000384521	0.00499023
3949.53	-0.698608	-0.0175629
3951.87	-0.000375366	0.00685822
3954.19	0.00015564	0.00498749
3956.53	-0.698578	-0.0175598
3958.87	0.000238037	0.00685577
3961.19	0.000738525	0.00498932
3963.53	-0.697968	-0.017572
3965.87	-0.000131226	0.0068515
3968.19	0.00017395	0.00499603
3970.53	-0.698944	-0.017572
3972.87	0.000720215	0.0068457
3975.19	-0.000335693	0.00499908
3977.53	-0.698822	-0.0175598
3979.87	0.000357056	0.00684601
3982.19	-4.88281e-05	0.00499725
3984.53	-0.698029	-0.0175415
3986.87	0.000509644	0.00673676
3989.19	-0.000369263	0.00491455
3991.53	-0.698486	-0.0176727
3993.87	-0.000534058	0.00681915
3996.19	-9.76562e-05	0.00494141
3998.53	-0.698456	-0.0177002
4000.87	-0.000183105	0.00683136
4003.19	0.000524902	0.00495331
4005.53	-0.698761	-0.0176727
4007.87	0.000143433	0.00684204
4010.19	0.000735474	0.00496765
4012.53	-0.6987	-0.0176636
4014.87	-0.000177002	0.00684631
4017.19	-3.96729e-05	0.00498352
4019.53	-0.697845	-0.0176636
4021.87	0.000518799	0.00684937
4024.19	0.000704956	0.00498566
4026.53	-0.698669	-0.0176544
4028.87	0.000363159	0.0068512
4031.19	0.000192261	0.00499603
4033.53	-0.698792	-0.0176422
4035.87	0.000643921	0.00685455
4038.19	-7.62939e-05	0.00499725
4040.53	-0.697968	-0.0176483
4042.87	0.000631714	0.00685455
4045.19	0.000128174	0.00500214
4047.53	-0.698151	-0.0176361
4049.87	-0.000534058	0.00686249
4052.19	-0.000445557	0.00500916
4054.53	-0.697784	-0.0176422
4056.87	-0.000482178	0.0068631
4059.19	0.000811768	0.00500458
4061.53	-0.699005	-0.01763
4063.87	-0.000506592	0.00686188
4066.19	0.000115967	0.00501099
4068.53	-0.698669	-0.0176208
4070.87	0.000442505	0.00685455
4073.19	-0.000491333	0.00501343
4075.53	-0.698975	-0.017627
4077.87	0.000247192	0.00685028
4080.19	0.000637817	0.00500763
4082.53	-0.697815	-0.0176239
4084.87	0.000387573	0.00685242
4087.19	0.00072937	0.00500885
4089.53	-0.697876	-0.0176178
4091.87	6.10352e-06	0.00685577
4094.19	0.000134277	0.00501556
4096.53	-0.698639	-0.0176117
4098.87	0.00012207	0.00684814
4101.19	0.000469971	0.00501221
4103.53	-0.697784	-0.0176147
4105.87	-0.000527954	0.00685272
4108.19	0.000839233	0.00501251
4110.53	-0.697723	-0.0176147
4112.87	-7.62939e-05	0.00685211
4115.19	-0.000436401	0.00501923
4117.53	-0.697876	-0.0176178
4119.87	0.000613403	0.00684418
4122.19	-0.000411987	0.00502075
4124.53	-0.697815	-0.0176208
4126.87	0.000143433	0.0068454
4129.19	-0.000442505	0.00502136
4131.53	-0.697754	-0.0176208
4133.87	0.000350952	0.0068399
4136.19	0.000189209	0.00502014
4138.53	-0.697845	-0.0176117
4140.87	0.000643921	0.0068396
4143.19	-0.000378418	0.00502472
4145.53	-0.697723	-0.0176147
4147.87	0.000488281	0.00683533
4150.19	0.000610352	0.00501862
4152.53	-0.697876	-0.0176147
4154.87	-0.000152588	0.00683899
4157.19	0.000750732	0.00501862
4159.53	-0.698669	-0.0175995
4161.87	-0.000317383	0.00683899
4164.19	-0.000280762	0.00502686
4166.53	-0.697662	-0.0176056
4168.87	-0.000213623	0.00683777
4171.19	-4.88281e-05	0.00502838
4173.53	-0.697754	-0.0176086
4175.87	0.000668335	0.00683289
4178.19	-0.000418091	0.00503113
4180.53	-0.698578	-0.0176056
4182.87	0.000289917	0.00683716
4185.19	0.000588989	0.00502594
4187.53	-0.697723	-0.0176025
4189.87	0.00017395	0.00683533
4192.19	0.000595093	0.0050238
4194.53	-0.698425	-0.0175903
4196.87	-0.000161743	0.00683502
4199.19	0.00072937	0.00502533
4201.53	-0.698608	-0.0175842
4203.87	-0.000439453	0.00683258
4206.19	0.000494385	0.0050293
4208.53	-0.698029	-0.0175934
4210.87	0.00038147	0.00682953
4213.19	0.000567627	0.00503204
4215.53	-0.6987	-0.0175964
4217.87	0.00067749	0.00682678
4220.19	-0.000369263	0.0050354
4222.53	-0.698822	-0.0175812
4224.87	0.000509644	0.00682556
4227.19	-0.000442505	0.00503723
4229.53	-0.698822	-0.0175812
4231.87	0.000308228	0.00682465
4234.19	0.000747681	0.00503021
4236.53	-0.697723	-0.0175873
4238.87	-0.000469971	0.0068277
4241.19	-0.000109863	0.00503815
4243.53	-0.6987	-0.0175812
4245.87	0.000488281	0.00681763
4248.19	0.000686646	0.00503387
4250.53	-0.698517	-0.017572
4252.87	-6.71387e-05	0.00681549
4255.19	0.000714111	0.00503204
4257.53	-0.698578	-0.0175842
4259.87	-0.000262451	0.00681824
4262.19	-0.000216675	0.00503876
4264.53	-0.698059	-0.0174927
4266.87	0.000637817	0.00672424
4269.19	0.000704956	0.00498383
4271.53	-0.698456	-0.017514
4273.87	0.000393677	0.00672699
4276.19	0.000482178	0.00499176
4278.53	-0.69809	-0.0175262
4280.87	-0.000125122	0.00679352
4283.19	-0.000213623	0.00501526
4285.53	-0.697845	-0.017627
4287.87	-0.000570679	0.00679932
4290.19	0.000634766	0.00501556
4292.53	-0.697937	-0.017627
4294.87	0.000650024	0.00679749
4297.19	-0.000430298	0.00502991
4299.53	-0.698273	-0.0176208
4301.87	-0.000476074	0.00680786
4304.19	-0.000152588	0.00503387
4306.53	-0.698914	-0.0176086
4308.87	-0.000418091	0.00680695
4311.19	-0.000228882	0.00503021
4313.53	-0.698151	-0.0176208
4315.87	0.000631714	0.00679932
4318.19	-7.93457e-05	0.00503632
4320.53	-0.69873	-0.0176086
4322.87	0.000531006	0.00679657
4325.19	0.000524902	0.00502838
4327.53	-0.697784	-0.0176056
4329.87	-0.000326538	0.00680054
4332.19	-0.000259399	0.00503113
4334.53	-0.697876	-0.0176117
4336.87	-0.000592041	0.00679901
4339.19	-0.000299072	0.00503723
4341.53	-0.697906	-0.0175995
4343.87	-0.000289917	0.00679901
4346.19	-0.000411987	0.00503754
4348.53	-0.69873	-0.0175995
4350.87	-0.000415039	0.00679474
4353.19	0.000372314	0.00503357
4355.53	-0.6987	-0.0176025
4357.87	0.000393677	0.00678864
4360.19	0.000595093	0.00503235
4362.53	-0.697723	-0.0176086
4364.87	0.000158691	0.00679108
4367.19	-0.000344849	0.0050351
4369.53	-0.698608	-0.0175934
4371.87	0.000363159	0.00678375
4374.19	-0.00027771	0.00504181
4376.53	-0.697906	-0.0175903
4378.87	-0.000320435	0.00678772
4381.19	-0.000262451	0.00504272
4383.53	-0.698883	-0.0175842
4385.87	0.000442505	0.00678436
4388.19	0.000112915	0.00503784
4390.53	-0.697784	-0.0175934
4392.87	0.000561523	0.00678314
4395.19	-2.13623e-05	0.00504303
4397.53	-0.698364	-0.0175873
4399.87	-0.000494385	0.00678772
4402.19	-0.00022583	0.00504578
4404.53	-0.698883	-0.0175873
4406.87	0.000698853	0.00677704
4409.19	9.46045e-05	0.00503998
4411.53	-0.697845	-0.0175934
4413.87	-0.000280762	0.00678101
4416.19	-0.000430298	0.00504761
4418.53	-0.69873	-0.0175842
4420.87	-0.000509644	0.00678131
4423.19	-0.000418091	0.00504578
4425.49	0.000799561	0.00393585