File: Edgar/20240522/20240522/electrodeposition_pulsed_potential_20240522_A/OCP_1
Time (s)	WE(1).Potential (V)
3.48177	0.516052
4.48177	0.516052
5.48177	0.516052
6.48177	0.516052
7.48177	0.516052
8.48177	0.516052
9.48177	0.516052
10.4818	0.516357
11.4818	0.516357
12.4818	0.516357
13.4818	0.516357
14.4818	0.516357
15.4818	0.516357
16.4818	0.516663
17.4818	0.516663
18.4818	0.516663
19.4818	0.516663
20.4818	0.516663
21.4818	0.516663
22.4818	0.516663
23.4818	0.516663
24.4818	0.516663
25.4818	0.516968
26.4818	0.516968
27.4818	0.516968
28.4818	0.516968
29.4818	0.516968
30.4818	0.517273
31.4818	0.517273
32.4818	0.517273
33.4818	0.517273
34.4818	0.517273
35.4818	0.517273
36.4818	0.517578
37.4818	0.517578
38.4818	0.517578
39.4818	0.517578
40.4818	0.517578
41.4818	0.517578
42.4818	0.517883
43.4818	0.517883
44.4818	0.517883
45.4818	0.517883
46.4818	0.517883
47.4818	0.517883
48.4818	0.518188
49.4818	0.518188
50.4818	0.518188
51.4818	0.518188
52.4818	0.518188
53.4818	0.518188
54.4818	0.518494
55.4818	0.518494
56.4818	0.518494
57.4818	0.518494
58.4818	0.518494
59.4818	0.518494
60.4818	0.518799
61.4818	0.518799
62.4818	0.518799
63.4818	0.518799
64.4818	0.518799
65.4818	0.518799
66.4818	0.519104
67.4818	0.519104
68.4818	0.519104
69.4818	0.519104
70.4818	0.519104
71.4818	0.519104
72.4818	0.519104
73.4818	0.519104
74.4818	0.519104
75.4818	0.519409
76.4818	0.519409
77.4818	0.519409
78.4818	0.519409
79.4818	0.519409
80.4818	0.519409
81.4818	0.519409
82.4818	0.519409
83.4818	0.519409
84.4818	0.519409
85.4818	0.519409
86.4818	0.519409
87.4818	0.519409
88.4818	0.519714
89.4818	0.519714
90.4818	0.519714
91.4818	0.519714
92.4818	0.519714
93.4818	0.519714
94.4818	0.519714
95.4818	0.519714
96.4818	0.519714
97.4818	0.519714
98.4818	0.519714
99.4818	0.519714
100.482	0.519714
101.482	0.519714
102.482	0.52002
103.482	0.52002
104.482	0.52002
105.482	0.52002
106.482	0.52002
107.482	0.52002
108.482	0.52002
109.482	0.52002
110.482	0.52002
111.482	0.52002
112.482	0.52002
113.482	0.52002
114.482	0.52002
115.482	0.52002
116.482	0.52002
117.482	0.52002
118.482	0.52002
119.482	0.52002
120.482	0.520325
121.482	0.520325
122.482	0.520325
123.482	0.520325
124.482	0.520325
125.482	0.520325
126.482	0.520325
127.482	0.520325
128.482	0.520325
129.482	0.520325
130.482	0.520325
131.482	0.520325
132.482	0.520325
133.482	0.520325
134.482	0.520325
135.482	0.520325
136.482	0.520325
137.482	0.520325
138.482	0.520325
139.482	0.520325
140.482	0.520325
141.482	0.52063
142.482	0.52063
143.482	0.52063
144.482	0.52063
145.482	0.52063
146.482	0.52063
147.482	0.52063
148.482	0.52063
149.482	0.52063
150.482	0.52063
151.482	0.52063
152.482	0.52063
153.482	0.52063
154.482	0.520935
155.482	0.520935
156.482	0.520935
157.482	0.520935
158.482	0.520935
159.482	0.520935
160.482	0.520935
161.482	0.520935
162.482	0.520935
163.482	0.520935
164.482	0.520935
165.482	0.520935
166.482	0.52124
167.482	0.52124
168.482	0.52124
169.482	0.52124
170.482	0.52124
171.482	0.52124
172.482	0.52124
173.482	0.52124
174.482	0.52124
175.482	0.521545
176.482	0.521545
177.482	0.521545
178.482	0.521545
179.482	0.521545
180.482	0.521545
181.482	0.521545
182.482	0.521545