File: Edgar/20240522/20240522/electrodeposition_pulsed_potential_20240522_A/OCP_3
Time (s)	WE(1).Potential (V)
8122.48	0.509949
8123.48	0.500488
8124.48	0.492645
8125.48	0.486633
8126.48	0.481903
8127.48	0.478302
8128.48	0.475586
8129.48	0.473572
8130.48	0.472137
8131.48	0.471191
8132.48	0.470581
8133.48	0.470215
8134.48	0.470154
8135.48	0.470215
8136.48	0.470398
8137.48	0.470703
8138.48	0.4711
8139.48	0.471558
8140.48	0.472046
8141.48	0.472565
8142.48	0.473114
8143.48	0.473663
8144.48	0.474243
8145.48	0.474823
8146.48	0.475403
8147.48	0.475952
8148.48	0.476501
8149.48	0.47702
8150.48	0.47757
8151.48	0.478058
8152.48	0.478546
8153.48	0.479004
8154.48	0.479431
8155.48	0.479858
8156.48	0.480286
8157.48	0.480652
8158.48	0.481049
8159.48	0.481445
8160.48	0.481812
8161.48	0.482147
8162.48	0.482483
8163.48	0.482788
8164.48	0.483093
8165.48	0.483398
8166.48	0.483704
8167.48	0.483978
8168.48	0.484192
8169.48	0.484436
8170.48	0.48465
8171.48	0.484894
8172.48	0.485077
8173.48	0.48526
8174.48	0.485474
8175.48	0.485657
8176.48	0.48584
8177.48	0.486023
8178.48	0.486176
8179.48	0.486328
8180.48	0.486511
8181.48	0.486633
8182.48	0.486786
8183.48	0.486938
8184.48	0.487091
8185.48	0.487305
8186.48	0.487488
8187.48	0.487701
8188.48	0.487885
8189.48	0.488068
8190.48	0.48822
8191.48	0.488373
8192.48	0.488495
8193.48	0.488647
8194.48	0.48877
8195.48	0.488892
8196.48	0.489014
8197.48	0.489105
8198.48	0.489197
8199.48	0.489288
8200.48	0.48938
8201.48	0.489471
8202.48	0.489532
8203.48	0.489594
8204.48	0.489685
8205.48	0.489746
8206.48	0.489807
8207.48	0.489899
8208.48	0.48996
8209.48	0.490021
8210.48	0.490112
8211.48	0.490112
8212.48	0.490173
8213.48	0.490204
8214.48	0.490265
8215.48	0.490326
8216.48	0.490356
8217.48	0.490387
8218.48	0.490417
8219.48	0.490448
8220.48	0.490479
8221.48	0.490479
8222.48	0.490509
8223.48	0.49054
8224.48	0.49057
8225.48	0.490601
8226.48	0.490601
8227.48	0.490631
8228.48	0.490631
8229.48	0.490662
8230.48	0.490692
8231.48	0.490692
8232.48	0.490723
8233.48	0.490784
8234.48	0.490845
8235.48	0.490906
8236.48	0.490936
8237.48	0.490997
8238.48	0.491028
8239.48	0.491058
8240.48	0.491089
8241.48	0.491089
8242.48	0.491119
8243.48	0.491119
8244.48	0.49118
8245.48	0.491211
8246.48	0.491272
8247.48	0.491302
8248.48	0.491333
8249.48	0.491364
8250.48	0.491394
8251.48	0.491394
8252.48	0.491425
8253.48	0.491425
8254.48	0.491455
8255.48	0.491486
8256.48	0.491516
8257.48	0.491516
8258.48	0.491516
8259.48	0.491547
8260.48	0.491577
8261.48	0.491547
8262.48	0.491608
8263.48	0.491638
8264.48	0.491669
8265.48	0.491699
8266.48	0.491547
8267.48	0.491699
8268.48	0.49173
8269.48	0.49173
8270.48	0.49176
8271.48	0.49176
8272.48	0.491791
8273.48	0.491791
8274.48	0.491821
8275.48	0.491852
8276.48	0.491852
8277.48	0.491913
8278.48	0.491943
8279.48	0.491974
8280.48	0.492035
8281.48	0.492065
8282.48	0.492096
8283.48	0.492065
8284.48	0.4921875
8285.48	0.492218
8286.48	0.492249
8287.48	0.492249
8288.48	0.492279
8289.48	0.49231
8290.48	0.49234
8291.48	0.49234
8292.48	0.49234
8293.48	0.49234
8294.48	0.492371
8295.48	0.492371
8296.48	0.492371
8297.48	0.492371
8298.48	0.492371
8299.48	0.49234
8300.48	0.49234
8301.48	0.49231