File: Edgar/20240522/20240522/electrodeposition_pulsed_potential_20240522_A/pulses_0_to_1000.txt
Time (s)	WE(1).Potential (V)	WE(1).Current (A)
183.186	-0.699219	-0.00242035
187.546	0.521698	-1.46484e-06
191.866	0.520569	2.83813e-06
196.206	-0.699249	-0.00212891
200.566	0.521729	2.7771e-06
204.886	0.520813	3.32642e-06
209.226	-0.699677	-0.00234619
213.586	0.520813	1.08032e-05
217.906	0.520813	4.76074e-06
222.246	-0.699738	-0.00252686
226.606	0.52124	8.02612e-06
230.926	0.521637	-4.27246e-07
235.286	0.000106812	0.0023053
239.626	0.521667	3.26538e-06
243.946	0.521362	9.46045e-07
248.306	-0.000192261	0.000382874
252.646	0.521545	2.31934e-06
256.966	0.521484	-8.8501e-07
261.326	0.000411987	0.000139343
265.666	0.520782	6.13403e-06
269.986	0.52063	3.69263e-06
274.346	3.05176e-05	6.58875e-05
278.686	0.521057	3.14331e-06
283.006	0.521698	-3.479e-06
287.386	0.521881	9.95789e-05
291.706	0.520691	5.64575e-06
296.026	0.520508	2.62451e-06
300.406	0.521332	4.30298e-05
304.726	0.520874	3.69263e-06
309.046	0.520599	3.23486e-06
313.426	0.521759	2.27661e-05
317.746	0.520721	2.22778e-06
322.066	0.520935	1.31226e-06
326.446	0.521149	1.9104e-05
330.766	0.520996	2.13623e-07
335.086	0.520905	-5.79834e-07
339.466	0.521576	1.03455e-05
343.786	0.521667	-1.52588e-06
348.106	0.521301	-2.0752e-06
352.486	0.52066	1.26648e-05
356.806	0.521606	-2.38037e-06
361.126	0.521729	-4.63867e-06
365.506	0.520599	1.15356e-05
369.826	0.521606	-2.53296e-06
374.146	0.521759	-4.66919e-06
378.526	0.52182	2.34985e-06
382.846	0.52063	4.05884e-06
387.166	0.52063	3.44849e-06
391.546	0.521545	2.89917e-06
395.866	0.520569	3.75366e-06
400.186	0.520996	-9.15527e-08
404.566	0.521698	1.00708e-06
408.886	0.52179	-2.47192e-06
413.206	0.521729	-6.04248e-06
417.586	0.521637	3.05176e-07
421.906	0.521576	-3.20435e-06
426.226	0.521667	-4.82178e-06
430.606	0.520966	3.66211e-06
434.926	0.52066	2.38037e-06
439.246	0.521759	-4.85229e-06
443.626	0.521454	-6.10352e-08
447.946	0.520813	1.52588e-06
452.286	-0.698853	-0.0111298
456.646	0.520569	4.73022e-06
460.966	0.521118	-5.49316e-07
465.306	-0.699585	-0.007547
469.666	0.521027	3.05176e-06
473.986	0.520691	1.86157e-06
478.326	-0.698486	-0.0058075
482.686	0.52066	4.69971e-06
487.006	0.521515	-2.16675e-06
491.346	-0.698761	-0.00485291
495.706	0.520874	2.34985e-06
500.026	0.520996	4.27246e-07
504.386	-0.000140381	0.00950012
508.726	0.52121	2.74658e-07
513.046	0.520844	1.28174e-06
517.406	-0.000131226	0.00597443
521.746	0.521057	1.86157e-06
526.066	0.521454	-2.74658e-06
530.426	0.000170898	0.00346466
534.766	0.520813	2.99072e-06
539.086	0.521484	-3.20435e-06
543.446	0.000579834	0.00164703
547.786	0.521118	8.54492e-07
552.106	0.521362	-3.05176e-06
556.486	0.520844	0.000456635
560.806	0.521423	-2.31934e-06
565.126	0.52121	-1.70898e-06
569.506	0.521149	9.34143e-05
573.826	0.520599	3.8147e-06
578.146	0.521759	-4.24194e-06
582.526	0.521057	4.17786e-05
586.846	0.521118	-9.15527e-08
591.166	0.520569	2.53296e-06
595.546	0.520691	2.79541e-05
599.866	0.52179	-3.35693e-06
604.186	0.521362	-3.11279e-06
608.566	0.520599	2.21558e-05
612.886	0.52124	3.05176e-07
617.206	0.521606	-4.30298e-06
621.586	0.521637	1.01929e-05
625.906	0.52121	-3.35693e-07
630.226	0.520538	2.22778e-06
634.606	0.520508	1.51062e-05
638.926	0.520813	3.69263e-06
643.246	0.521515	-2.68555e-06
647.626	0.520813	1.17798e-05
651.946	0.520691	3.11279e-06
656.266	0.521515	-2.16675e-06
660.646	0.520569	1.06201e-05
664.966	0.521393	-1.28174e-06
669.286	0.521881	-4.21143e-06
673.666	0.52063	1.01013e-05
677.986	0.520752	1.5564e-06
682.306	0.521057	-1.12915e-06
686.686	0.520874	9.27734e-06
691.006	0.521698	-3.54004e-06
695.326	0.521484	-3.17383e-06
699.706	0.521851	1.49536e-06
704.026	0.521515	-3.02124e-06
708.346	0.520905	3.05176e-08
712.726	0.520935	7.1106e-06
717.046	0.520935	3.96729e-07
721.386	-0.699188	-0.0141785
725.746	0.521698	1.52588e-06
730.066	0.520844	2.38037e-06
734.406	-0.698761	-0.0107391
738.766	0.521179	2.53296e-06
743.086	0.520966	2.13623e-07
747.426	-0.698975	-0.00848389
751.786	0.521271	4.24194e-06
756.106	0.521729	-3.8147e-06
760.446	-0.699493	-0.0070224
764.806	0.520691	7.50732e-06
769.126	0.520752	1.52588e-06
773.487	-0.000799561	0.00963745
777.827	0.521637	2.44141e-07
782.147	0.521667	-3.63159e-06
786.507	0.000640869	0.00698029
790.847	0.52066	7.62939e-06
795.167	0.52066	1.80054e-06
799.527	0.000650024	0.00510162
803.867	0.520599	7.20215e-06
808.187	0.520721	3.84521e-06
812.547	0.000857544	0.00354431
816.887	0.520905	2.53296e-06
821.207	0.521698	-2.74658e-06
825.587	0.521729	0.00628876
829.907	0.52179	-1.89209e-06
834.227	0.521118	3.66211e-07
838.607	0.52066	0.000358673
842.927	0.520782	5.31006e-06
847.247	0.521088	5.49316e-07
851.627	0.520874	0.000125122
855.947	0.520691	6.19507e-06
860.267	0.520844	1.80054e-06
864.647	0.521729	6.21338e-05
868.967	0.521606	-4.57764e-07
873.287	0.52124	8.54492e-07
877.667	0.520752	4.13208e-05
881.987	0.520996	1.43433e-06
886.307	0.52066	5.09644e-06
890.687	0.520599	3.33557e-05
895.007	0.52063	5.70679e-06
899.327	0.521698	-4.60815e-06
903.707	0.521393	2.09351e-05
908.027	0.520691	5.06592e-06
912.347	0.520569	3.02124e-06
916.727	0.521698	1.51978e-05
921.047	0.521576	-1.34277e-06
925.367	0.521606	-3.26538e-06
929.747	0.521454	1.56555e-05
934.067	0.521454	-5.49316e-07
938.387	0.52124	-2.38037e-06
942.767	0.521149	1.39465e-05
947.087	0.52179	-3.35693e-07
951.407	0.520752	2.16675e-06
955.787	0.520813	1.34888e-05
960.107	0.521484	3.35693e-07
964.427	0.520813	1.25122e-06
968.807	0.521027	1.16272e-05
973.127	0.520599	5.00488e-06
977.447	0.52124	-1.70898e-06
981.827	0.521454	6.16455e-06
986.147	0.520966	1.31226e-06
990.487	-0.699036	-0.0158386
994.847	0.521698	6.10352e-06
999.167	0.520935	4.27246e-07
1003.51	-0.698242	-0.0125031
1007.87	0.521271	6.71387e-06
1012.19	0.521057	5.49316e-07
1016.53	-0.698792	-0.0102753
1020.89	0.520813	1.03455e-05
1025.21	0.52063	4.54712e-06
1029.55	-0.699371	-0.00863647
1033.91	0.52124	7.93457e-06
1038.23	0.521545	-1.28174e-06
1042.59	-0.000756836	0.00918274
1046.93	0.521393	4.5166e-06
1051.25	0.520569	4.57764e-06
1055.61	-0.00039978	0.00705994
1059.95	0.520569	8.66699e-06
1064.27	0.521729	9.15527e-08
1068.63	0.000540161	0.00550262
1072.97	0.521729	1.7395e-06
1077.29	0.52179	-1.7395e-06
1081.65	0.000735474	0.00421509
1085.99	0.520538	8.45337e-06
1090.31	0.521667	-1.86157e-06
1094.69	0.521301	0.0106384
1099.01	0.521118	5.31006e-06
1103.33	0.521729	-2.10571e-06
1107.71	0.520569	0.00121826
1112.03	0.520538	8.8501e-06
1116.35	0.521667	-3.02124e-06
1120.73	0.520935	0.000295868
1125.05	0.520599	8.69751e-06
1129.37	0.521454	2.13623e-07
1133.75	0.520935	0.00013858
1138.07	0.52121	4.05884e-06
1142.39	0.520782	3.02124e-06
1146.77	0.52063	8.52661e-05
1151.09	0.521393	3.69263e-06
1155.41	0.52179	-2.04468e-06
1159.79	0.52063	5.86548e-05
1164.11	0.521423	2.80762e-06
1168.43	0.521576	-2.44141e-06
1172.81	0.521484	3.85742e-05
1177.13	0.520874	4.39453e-06
1181.45	0.520721	4.11987e-06
1185.83	0.520844	3.29285e-05
1190.15	0.521698	5.18799e-07
1194.47	0.521606	-1.86157e-06
1198.85	0.520996	2.67944e-05
1203.17	0.521759	-1.31226e-06
1207.49	0.521515	-1.58691e-06
1211.87	0.521698	1.87683e-05
1216.19	0.521759	-5.18799e-07
1220.51	0.521393	-9.46045e-07
1224.89	0.521545	1.92566e-05
1229.21	0.521027	4.66919e-06
1233.53	0.52179	-3.75366e-06
1237.91	0.521515	1.51978e-05
1242.23	0.521179	3.96729e-06
1246.55	0.520752	2.74658e-06
1250.93	0.520599	1.92566e-05
1255.25	0.520691	6.80542e-06
1259.59	-0.698456	-0.0170471
1263.95	0.520905	1.55945e-05
1268.27	0.520996	3.23486e-06
1272.61	-0.698975	-0.013623
1276.97	0.520569	1.62659e-05
1281.29	0.521393	5.49316e-07
1285.63	-0.69931	-0.011496
1289.99	0.521606	8.30078e-06
1294.31	0.521484	1.2207e-07
1298.65	-0.699219	-0.00984802
1303.01	0.521698	7.90405e-06
1307.33	0.521667	-9.46045e-07
1311.69	0.000378418	0.00871277
1316.03	0.520935	1.09253e-05
1320.35	0.520996	1.19019e-06
1324.71	-0.000244141	0.00692627
1329.05	0.520691	1.22375e-05
1333.37	0.520569	4.76074e-06
1337.73	0.000244141	0.00558807
1342.07	0.521729	5.70679e-06
1346.39	0.521759	-1.92261e-06
1350.75	0.000512695	0.00446381
1355.09	0.52066	1.14746e-05
1359.41	0.521759	-1.09863e-06
1363.79	0.520355	0.0124115
1368.11	0.520721	1.03455e-05
1372.43	0.52063	5.37109e-06
1376.81	0.520599	0.00480469
1381.13	0.520782	8.57544e-06
1385.45	0.520813	3.78418e-06
1389.83	0.520782	0.00059082
1394.15	0.521576	4.63867e-06
1398.47	0.521118	2.62451e-06
1402.85	0.52179	0.000236786
1407.17	0.521088	7.99561e-06
1411.49	0.521027	3.84521e-06
1415.87	0.520569	0.000138
1420.19	0.52182	2.47192e-06
1424.51	0.52066	4.91333e-06
1428.89	0.521637	8.41675e-05
1433.21	0.521759	2.38037e-06
1437.53	0.520599	4.97437e-06
1441.91	0.521057	6.40869e-05
1446.23	0.52063	1.00708e-05
1450.55	0.521057	2.99072e-06
1454.93	0.521759	4.37012e-05
1459.25	0.521484	2.16675e-06
1463.57	0.521545	-1.5564e-06
1467.95	0.520538	4.3335e-05
1472.27	0.521484	3.93677e-06
1476.59	0.52124	2.13623e-06
1480.97	0.520508	3.52478e-05
1483.15	0.521637	-1.89209e-06