File: Edgar/20240522/20240522/electrodeposition_pulsed_potential_20240522_A/pulses_4000_to_5000.txt
Time (s)	WE(1).Potential (V)	WE(1).Current (A)
5475.74	-0.698181	-0.0225098
5480.1	0.521332	0.000103088
5484.42	0.520721	2.13928e-05
5488.76	-0.6987	-0.0201416
5493.12	0.521118	8.71887e-05
5497.44	0.521301	1.77307e-05
5501.78	-0.6987	-0.0182983
5506.14	0.520599	7.85217e-05
5510.46	0.520569	2.21863e-05
5514.8	-0.698608	-0.0168365
5519.16	0.52063	6.78101e-05
5523.48	0.520844	1.86768e-05
5527.84	0.000405884	0.00385834
5532.18	0.521759	5.33752e-05
5536.5	0.521729	1.27869e-05
5540.86	-0.000320435	0.00326965
5545.2	0.520844	5.27649e-05
5549.52	0.520905	1.75476e-05
5553.88	-0.000268555	0.00281586
5558.22	0.52063	4.98962e-05
5562.54	0.521362	1.37024e-05
5566.9	0.000442505	0.00243591
5571.24	0.521301	4.13208e-05
5575.56	0.520874	1.73035e-05
5579.94	0.519867	0.0150726
5584.26	0.520599	4.30603e-05
5588.58	0.52179	1.06506e-05
5592.96	0.520691	0.0131927
5597.28	0.521271	3.67126e-05
5601.6	0.52063	1.6449e-05
5605.98	0.520905	0.0114532
5610.3	0.52066	3.76587e-05
5614.62	0.521271	1.17798e-05
5619	0.520477	0.00975342
5623.32	0.520721	3.49731e-05
5627.64	0.521362	1.33362e-05
5632.02	0.520844	0.00786743
5636.34	0.520874	3.33862e-05
5640.66	0.521667	1.08032e-05
5645.04	0.52066	0.00455017
5649.36	0.520874	3.0304e-05
5653.68	0.521057	1.23901e-05
5658.06	0.520691	0.00166443
5662.38	0.520782	3.07007e-05
5666.7	0.520966	1.4801e-05
5671.08	0.521393	0.000896606
5675.4	0.52063	2.89612e-05
5679.72	0.521729	8.72803e-06
5684.1	0.520752	0.000568542
5688.42	0.520874	2.55127e-05
5692.74	0.520599	1.51978e-05
5697.12	0.520935	0.000385162
5701.44	0.521057	2.46582e-05
5705.76	0.521698	8.11768e-06
5710.14	0.521362	0.000272522
5714.46	0.521423	2.02637e-05
5718.78	0.521271	8.42285e-06
5723.16	0.521149	0.000202728
5727.48	0.521179	2.33154e-05
5731.8	0.52179	6.92749e-06
5736.18	0.521484	0.00015332
5740.5	0.521088	1.9989e-05
5744.84	-0.698486	-0.022699
5749.2	0.520874	0.000121338
5753.52	0.521667	1.69373e-05
5757.86	-0.697845	-0.0203369
5762.22	0.521759	9.35364e-05
5766.54	0.52182	1.50757e-05
5770.88	-0.698151	-0.0185486
5775.24	0.520844	8.21838e-05
5779.56	0.520721	2.13928e-05
5783.9	-0.698578	-0.0170807
5788.26	0.521637	6.58264e-05
5792.58	0.520691	2.12097e-05
5796.94	-0.00015564	0.00365265
5801.28	0.520782	6.27441e-05
5805.6	0.520721	2.01416e-05
5809.96	0.000357056	0.00307709
5814.3	0.521057	5.46875e-05
5818.62	0.52066	1.98364e-05
5822.98	-0.000180054	0.00263855
5827.32	0.520752	5.00488e-05
5831.64	0.521454	1.34888e-05
5836	0.000534058	0.00228333
5840.34	0.521667	4.09546e-05
5844.66	0.521393	1.33057e-05
5849.04	0.520355	0.0150299
5853.36	0.521423	3.85132e-05
5857.68	0.520782	1.6571e-05
5862.06	0.520966	0.0132233
5866.38	0.52066	3.98254e-05
5870.7	0.520569	1.58386e-05
5875.08	0.52063	0.011557
5879.4	0.520691	3.78723e-05
5883.72	0.520782	1.67542e-05
5888.1	0.52124	0.00993042
5892.42	0.521667	3.04871e-05
5896.74	0.520691	1.62354e-05
5901.12	0.520294	0.00816345
5905.44	0.521637	2.8717e-05
5909.76	0.521729	1.05896e-05
5914.14	0.521637	0.00547241
5918.46	0.520752	3.14636e-05
5922.78	0.520813	1.37329e-05
5927.16	0.521301	0.00201355
5931.48	0.520599	3.02429e-05
5935.8	0.521332	1.22681e-05
5940.18	0.521545	0.00105377
5944.5	0.520569	2.9541e-05
5948.82	0.521576	8.48389e-06
5953.2	0.521332	0.000660095
5957.52	0.52124	2.44141e-05
5961.84	0.520691	1.51062e-05
5966.22	0.52063	0.000450592
5970.54	0.520691	2.71606e-05
5974.86	0.521667	8.39233e-06
5979.24	0.52121	0.000319031
5983.56	0.52063	2.56653e-05
5987.88	0.521454	7.23267e-06
5992.26	0.520905	0.000234619
5996.58	0.521393	1.89209e-05
6000.9	0.521698	7.87354e-06
6005.28	0.520966	0.000178284
6009.6	0.521606	1.88904e-05
6013.94	-0.697815	-0.0228485
6018.3	0.52124	0.000135468
6022.62	0.521423	1.85852e-05
6026.96	-0.697693	-0.0205566
6031.32	0.521301	0.000110535
6035.64	0.521606	1.63269e-05
6039.98	-0.69809	-0.0187927
6044.34	0.521576	8.71887e-05
6048.66	0.521484	1.67236e-05
6053	-0.698395	-0.0172913
6057.36	0.521606	7.14722e-05
6061.68	0.521667	1.54419e-05
6066.04	0.000366211	0.00344421
6070.38	0.521759	6.10962e-05
6074.7	0.520599	2.02942e-05
6079.06	-9.76562e-05	0.00291504
6083.4	0.520813	5.92041e-05
6087.72	0.521362	1.63269e-05
6092.08	0.000518799	0.00248108
6096.42	0.521606	4.73938e-05
6100.74	0.521545	1.3031e-05
6105.1	-0.000213623	0.00214813
6109.44	0.520721	4.87366e-05
6113.76	0.520721	1.84326e-05
6118.14	0.520325	0.014978
6122.46	0.521179	4.01611e-05
6126.78	0.521515	1.20544e-05
6131.16	0.520721	0.0132385
6135.48	0.521667	3.53088e-05
6139.8	0.52124	1.37024e-05
6144.18	0.521027	0.011615
6148.5	0.521118	3.59497e-05
6152.82	0.521271	1.31226e-05
6157.2	0.520264	0.0100586
6161.52	0.520996	3.47595e-05
6165.84	0.521423	1.26648e-05
6170.22	0.521301	0.00838013
6174.54	0.521149	3.2135e-05
6178.86	0.521423	1.37939e-05
6183.24	0.521027	0.00603943
6187.56	0.521545	2.65503e-05
6191.88	0.521362	1.19019e-05
6196.26	0.52066	0.00236511
6200.58	0.521179	2.74658e-05
6204.9	0.521423	1.07727e-05
6209.28	0.520752	0.00122528
6213.6	0.520844	2.81982e-05
6217.92	0.521637	9.42993e-06
6222.3	0.520691	0.000762024
6226.62	0.521362	2.23694e-05
6230.94	0.520782	1.41907e-05
6235.32	0.521576	0.00051239
6239.64	0.521637	2.16675e-05
6243.96	0.521179	9.8877e-06
6248.34	0.520966	0.000366119
6252.66	0.520782	2.50549e-05
6256.98	0.520874	1.19019e-05
6261.36	0.520752	0.000270538
6265.68	0.521637	1.88904e-05
6270	0.520966	1.11389e-05
6274.38	0.521088	0.000202179
6278.7	0.520782	2.36206e-05
6283.04	-0.697418	-0.022934
6287.4	0.520905	0.000158112
6291.72	0.520599	2.35901e-05
6296.06	-0.698486	-0.0207062
6300.42	0.520721	0.000127869
6304.74	0.52182	1.63574e-05
6309.08	-0.698669	-0.0190186
6313.44	0.52066	0.000104584
6317.76	0.521606	1.66016e-05
6322.1	-0.698792	-0.0176361
6326.46	0.521515	8.13599e-05
6330.78	0.521545	1.51672e-05
6335.14	-0.000286865	0.00316162
6339.48	0.520721	7.41577e-05
6343.8	0.521637	1.49841e-05
6348.16	0.000314331	0.00262482
6352.5	0.520752	6.427e-05
6356.82	0.520874	1.81274e-05
6361.18	0.000204468	0.00224243
6365.52	0.520752	5.75867e-05
6369.84	0.520691	1.93787e-05
6374.2	0.000634766	0.00193512
6378.54	0.520599	5.22461e-05
6382.86	0.52179	1.21155e-05
6387.24	0.520935	0.0149078
6391.56	0.520874	4.67224e-05
6395.88	0.520691	1.83105e-05
6400.26	0.519989	0.0132202
6404.58	0.521301	3.95508e-05
6408.9	0.521149	1.39465e-05
6413.28	0.521027	0.0116638
6417.6	0.521423	3.58582e-05
6421.92	0.521454	1.22375e-05
6426.3	0.52066	0.0101715
6430.62	0.521423	3.23486e-05
6434.94	0.520813	1.66626e-05
6439.32	0.521362	0.00861511
6443.64	0.521088	3.22876e-05
6447.96	0.520721	1.55029e-05
6452.34	0.520721	0.00661896
6456.66	0.520599	3.30811e-05
6460.98	0.521667	1.1261e-05
6465.36	0.521637	0.00293304
6469.68	0.521423	2.67944e-05
6474	0.521545	1.11694e-05
6478.38	0.520538	0.00145264
6482.7	0.521576	2.50244e-05
6487.02	0.520844	1.297e-05
6491.4	0.521545	0.000886841
6495.72	0.520782	2.82593e-05
6500.04	0.521698	8.69751e-06
6504.42	0.521118	0.000596313
6508.74	0.520996	2.5238e-05
6513.06	0.521545	9.18579e-06
6517.44	0.521606	0.000419647
6521.76	0.521698	1.92871e-05
6526.08	0.520813	1.34583e-05
6530.46	0.521637	0.000305054
6534.78	0.52182	1.95618e-05
6539.1	0.520752	1.19324e-05
6543.48	0.520721	0.000236481
6547.8	0.521637	1.88599e-05
6552.14	-0.698303	-0.0230865
6556.5	0.520721	0.00018219
6560.82	0.521057	2.17896e-05
6565.16	-0.697601	-0.0209137
6569.52	0.521088	0.000141602
6573.84	0.521393	1.85852e-05
6578.18	-0.697662	-0.0192322
6582.54	0.521759	0.000110748
6586.86	0.520844	2.09961e-05
6591.2	-0.698273	-0.017865
6595.56	0.521088	9.2865e-05
6599.88	0.521606	1.54114e-05
6604.24	0.000604248	0.00293732
6608.58	0.520721	8.04138e-05
6612.9	0.520721	2.05994e-05
6617.26	0.000332642	0.00242035
6621.6	0.520599	7.02209e-05
6625.92	0.521698	1.37939e-05
6630.28	-0.000271606	0.00206055
6634.62	0.521271	5.85632e-05
6638.94	0.520996	1.828e-05
6643.3	0.000109863	0.00177063
6647.64	0.520752	5.41382e-05
6651.96	0.520599	2.05078e-05
6656.34	0.520935	0.0148224
6660.66	0.521088	4.81873e-05
6664.98	0.520782	1.73035e-05
6669.36	0.520508	0.0132019
6673.68	0.521484	4.00696e-05
6678	0.52121	1.4679e-05
6682.38	0.521179	0.0116974
6686.7	0.520752	4.13818e-05
6691.02	0.520691	1.69373e-05
6695.4	0.520355	0.0102753
6699.72	0.520782	3.88489e-05
6704.04	0.520813	1.67236e-05
6708.42	0.520752	0.00879211
6712.74	0.52066	3.65601e-05
6717.06	0.521301	1.2085e-05
6721.44	0.520905	0.00697113
6725.76	0.521149	3.03955e-05
6730.08	0.52063	1.58386e-05
6734.46	0.520721	0.00351624
6738.78	0.520569	3.22876e-05
6743.1	0.52066	1.51978e-05
6747.48	0.521484	0.00167206
6751.8	0.521667	2.48413e-05
6756.12	0.521271	1.10779e-05
6760.5	0.521515	0.00101196
6764.82	0.520569	2.96631e-05
6769.14	0.52124	1.34888e-05
6773.52	0.520874	0.000682678
6775.7	0.520813	1.44653e-05