File: Edgar/20240522/20240522/electrodeposition_pulsed_potential_20240522_A/pulses_1000_to_2000.txt
Time (s)	WE(1).Potential (V)	WE(1).Current (A)
1506.35	-0.69873	-0.0178894
1510.71	0.521271	1.68457e-05
1515.03	0.521729	-3.05176e-08
1519.37	-0.699097	-0.0143799
1523.73	0.521606	1.34277e-05
1528.05	0.520599	6.89697e-06
1532.39	-0.698914	-0.0122986
1536.75	0.521545	1.28174e-05
1541.07	0.521545	7.32422e-07
1545.41	-0.698547	-0.0106628
1549.77	0.521484	1.27563e-05
1554.09	0.520752	6.46973e-06
1558.45	-0.000689697	0.0083252
1562.79	0.520599	1.6571e-05
1567.11	0.521606	8.8501e-07
1571.47	-0.000442505	0.00676208
1575.81	0.521606	9.15527e-06
1580.13	0.521545	-5.79834e-07
1584.49	0.000408936	0.00555359
1588.83	0.520844	1.27258e-05
1593.15	0.52066	5.12695e-06
1597.51	0.000714111	0.00453552
1601.85	0.521759	6.16455e-06
1606.17	0.521057	2.89917e-06
1610.55	0.520447	0.0132629
1614.87	0.521729	6.95801e-06
1619.19	0.521667	3.66211e-07
1623.57	0.520538	0.00785217
1627.89	0.521301	1.02539e-05
1632.21	0.520599	7.32422e-06
1636.59	0.520813	0.000983582
1640.91	0.520752	1.13831e-05
1645.23	0.521667	-1.52588e-07
1649.61	0.521454	0.000346222
1653.93	0.521057	9.00269e-06
1658.25	0.521027	3.35693e-06
1662.63	0.52124	0.000184937
1666.95	0.520905	8.8501e-06
1671.27	0.52182	-2.41089e-06
1675.65	0.520691	0.000121063
1679.97	0.52063	1.10168e-05
1684.29	0.521362	1.5564e-06
1688.67	0.521362	8.19397e-05
1692.99	0.521759	4.39453e-06
1697.31	0.520721	6.68335e-06
1701.69	0.521423	6.29578e-05
1706.01	0.521851	3.60107e-06
1710.33	0.521729	-1.70898e-06
1714.71	0.521179	4.80957e-05
1719.03	0.520599	1.18713e-05
1723.35	0.521759	-1.49536e-06
1727.73	0.520996	4.05884e-05
1732.05	0.521118	6.34766e-06
1736.37	0.520721	5.43213e-06
1740.75	0.521515	3.24402e-05
1745.07	0.52179	2.31934e-06
1749.39	0.52179	-3.38745e-06
1753.77	0.521576	2.61841e-05
1758.09	0.521698	2.38037e-06
1762.41	0.520691	5.0354e-06
1766.79	0.521729	2.16675e-05
1771.11	0.52063	8.66699e-06
1775.45	-0.69873	-0.0185822
1779.81	0.520874	2.50549e-05
1784.13	0.52063	7.99561e-06
1788.47	-0.698944	-0.015036
1792.83	0.521088	2.04773e-05
1797.15	0.521271	4.15039e-06
1801.49	-0.698639	-0.0129944
1805.85	0.521667	1.45569e-05
1810.17	0.521698	8.54492e-07
1814.51	-0.698914	-0.0113892
1818.87	0.521362	1.78223e-05
1823.19	0.521271	2.50244e-06
1827.55	0.000308228	0.00789795
1831.89	0.521667	1.3916e-05
1836.21	0.521637	6.40869e-07
1840.57	0.000546265	0.00652496
1844.91	0.520569	1.83716e-05
1849.23	0.520752	6.31714e-06
1853.59	0.0006073	0.00545013
1857.93	0.521118	1.58386e-05
1862.25	0.520966	3.75366e-06
1866.61	-0.000378418	0.00453491
1870.95	0.521667	1.11389e-05
1875.27	0.520691	6.37817e-06
1879.65	0.521027	0.0139496
1883.97	0.521057	1.34277e-05
1888.29	0.520569	7.90405e-06
1892.67	0.521332	0.00946045
1896.99	0.521332	1.07727e-05
1901.31	0.520721	7.78198e-06
1905.69	0.520782	0.00189087
1910.01	0.520874	1.30615e-05
1914.33	0.521759	4.88281e-07
1918.71	0.521271	0.00052948
1923.03	0.520782	1.27563e-05
1927.35	0.520599	6.46973e-06
1931.73	0.520966	0.000263916
1936.05	0.520996	1.15662e-05
1940.37	0.521149	3.41797e-06
1944.75	0.521667	0.000158203
1949.07	0.521027	1.03149e-05
1953.39	0.52121	4.02832e-06
1957.77	0.521057	0.000112823
1962.09	0.520508	1.21765e-05
1966.41	0.521667	1.43433e-06
1970.79	0.520599	8.71887e-05
1975.11	0.521362	6.01196e-06
1979.43	0.521057	4.3335e-06
1983.81	0.521484	6.25916e-05
1988.13	0.521484	5.58472e-06
1992.45	0.521759	1.2207e-07
1996.83	0.520691	5.53894e-05
2001.15	0.521729	4.91333e-06
2005.47	0.520905	4.69971e-06
2009.85	0.521606	4.13818e-05
2014.17	0.520874	8.94165e-06
2018.49	0.520782	5.64575e-06
2022.87	0.520569	4.11682e-05
2027.19	0.52066	1.04675e-05
2031.51	0.520813	4.5166e-06
2035.89	0.521667	3.07007e-05
2040.21	0.521057	7.38525e-06
2044.55	-0.698181	-0.0191589
2048.91	0.521759	2.62451e-05
2053.23	0.521729	2.89917e-06
2057.57	-0.698853	-0.0156128
2061.93	0.52066	2.99072e-05
2066.25	0.520569	1.07422e-05
2070.59	-0.697998	-0.0135712
2074.95	0.521667	2.04163e-05
2079.27	0.521698	3.14331e-06
2083.61	-0.699219	-0.0120209
2087.97	0.520782	2.48108e-05
2092.29	0.52066	1.05896e-05
2096.65	-0.000488281	0.00749542
2100.99	0.52066	2.36816e-05
2105.31	0.520752	8.75854e-06
2109.67	-3.05176e-05	0.00627747
2114.01	0.521484	1.72119e-05
2118.33	0.521729	2.99072e-06
2122.69	-0.000350952	0.00531036
2127.03	0.521057	1.87073e-05
2131.35	0.521576	4.69971e-06
2135.71	0.000683594	0.00445984
2140.05	0.520752	1.89514e-05
2144.37	0.521698	1.77002e-06
2148.75	0.519958	0.0143738
2153.07	0.520721	1.84937e-05
2157.39	0.520996	6.89697e-06
2161.77	0.520538	0.0104156
2166.09	0.521088	1.39465e-05
2170.41	0.520874	7.99561e-06
2174.79	0.52063	0.00384979
2179.11	0.520813	1.66931e-05
2183.43	0.521729	1.40381e-06
2187.81	0.521667	0.000782166
2192.13	0.520935	1.48926e-05
2196.45	0.521027	5.37109e-06
2200.83	0.52121	0.000359375
2205.15	0.521179	8.60596e-06
2209.47	0.521362	3.479e-06
2213.85	0.521698	0.000209808
2218.17	0.52121	1.11084e-05
2222.49	0.520874	6.22559e-06
2226.87	0.520721	0.000147369
2231.19	0.521759	7.44629e-06
2235.51	0.521606	1.43433e-06
2239.89	0.521606	0.00010321
2244.21	0.52179	7.53784e-06
2248.53	0.52121	2.59399e-06
2252.91	0.52066	8.52661e-05
2257.23	0.521698	7.99561e-06
2261.55	0.52063	4.79126e-06
2265.93	0.521027	6.72607e-05
2270.25	0.52063	1.33057e-05
2274.57	0.520844	5.09644e-06
2278.95	0.520752	5.69763e-05
2283.27	0.520752	1.22986e-05
2287.59	0.521729	1.83105e-07
2291.97	0.520691	4.91943e-05
2296.29	0.520508	1.20544e-05
2300.61	0.520569	6.43921e-06
2304.99	0.520569	4.32739e-05
2309.31	0.520721	1.07727e-05
2313.65	-0.698792	-0.0196259
2318.01	0.521698	3.17078e-05
2322.33	0.52063	1.24512e-05
2326.67	-0.698822	-0.0161072
2331.03	0.52179	2.85034e-05
2335.35	0.52066	1.01318e-05
2339.69	-0.698242	-0.0140594
2344.05	0.52063	3.1311e-05
2348.37	0.52179	3.63159e-06
2352.71	-0.699219	-0.0125488
2357.07	0.521332	2.45972e-05
2361.39	0.520752	9.18579e-06
2365.75	0.000109863	0.0071286
2370.09	0.52121	2.34985e-05
2374.41	0.520721	1.05896e-05
2378.77	7.62939e-05	0.00602936
2383.11	0.521576	1.98364e-05
2387.43	0.521545	4.18091e-06
2391.79	0.00015564	0.00514404
2396.13	0.520782	2.34375e-05
2400.45	0.520752	8.05664e-06
2404.81	0.000460815	0.00437042
2409.15	0.520813	2.1759e-05
2413.47	0.520691	9.765625E-06
2417.85	0.520996	0.014679
2422.17	0.521729	1.51978e-05
2426.49	0.521515	3.02124e-06
2430.87	0.520782	0.0110992
2435.19	0.521729	1.25122e-05
2439.51	0.52066	1.03149e-05
2443.89	0.520752	0.00655182
2448.21	0.521759	1.34583e-05
2452.53	0.52063	7.20215e-06
2456.91	0.521393	0.00113586
2461.23	0.520935	1.57471e-05
2465.55	0.52121	6.073e-06
2469.93	0.520599	0.000473297
2474.25	0.521759	1.08337e-05
2478.57	0.521057	6.56128e-06
2482.95	0.520721	0.000271729
2487.27	0.520599	1.74255e-05
2491.59	0.521515	3.54004e-06
2495.97	0.521057	0.000177856
2500.29	0.521454	1.09253e-05
2504.61	0.520905	8.39233e-06
2508.99	0.520538	0.000131744
2513.31	0.521423	1.22375e-05
2517.63	0.521149	5.18799e-06
2522.01	0.521515	9.66187e-05
2526.33	0.520538	1.60522e-05
2530.65	0.520752	7.41577e-06
2535.03	0.520599	8.28247e-05
2539.35	0.521698	8.11768e-06
2543.67	0.52179	2.71606e-06
2548.05	0.520599	6.87561e-05
2552.37	0.521301	9.94873e-06
2556.69	0.521454	3.78418e-06
2561.07	0.521484	5.33752e-05
2565.39	0.520844	1.19934e-05
2569.71	0.521545	2.65503e-06
2574.09	0.52063	5.14526e-05
2578.41	0.521179	1.1322e-05
2582.75	-0.698273	-0.02005
2587.11	0.520782	4.34875e-05
2591.43	0.521393	8.57544e-06
2595.77	-0.69812	-0.0165863
2600.13	0.521545	3.54919e-05
2604.45	0.521698	4.69971e-06
2608.79	-0.698608	-0.014505
2613.15	0.520569	3.7384e-05
2617.47	0.520691	1.15356e-05
2621.81	-0.698517	-0.0130127
2626.17	0.520599	3.56445e-05
2630.49	0.521637	4.69971e-06
2634.85	0.000531006	0.00680664
2639.19	0.520782	3.08533e-05
2643.51	0.521332	6.62231e-06
2647.87	-0.000106812	0.00580597
2652.21	0.521759	2.2583e-05
2656.53	0.520599	1.21155e-05
2660.89	-0.000228882	0.00498627
2665.23	0.520752	2.70996e-05
2669.55	0.521301	6.95801e-06
2673.91	9.46045e-05	0.00426453
2678.25	0.520721	2.50549e-05
2682.57	0.521179	6.80542e-06
2686.95	0.521088	0.0148621
2691.27	0.521057	2.16064e-05
2695.59	0.521027	8.30078e-06
2699.97	0.520447	0.0115723
2704.29	0.521637	1.72119e-05
2708.61	0.521362	5.95093e-06
2712.99	0.520569	0.00787354
2717.31	0.520721	2.16675e-05
2721.63	0.521637	2.99072e-06
2726.01	0.52066	0.00164246
2730.33	0.521088	1.9043e-05
2734.65	0.52124	6.40869e-06
2739.03	0.520569	0.000606689
2743.35	0.521423	1.26343e-05
2747.67	0.521698	2.7771e-06
2752.05	0.52066	0.000331055
2756.37	0.521362	1.5564e-05
2760.69	0.52066	9.94873e-06
2765.07	0.520813	0.000215149
2769.39	0.52179	1.08337e-05
2773.71	0.521545	3.96729e-06
2778.09	0.521454	0.000149872
2782.41	0.52063	1.53198e-05
2786.73	0.520599	1.02234e-05
2791.11	0.520813	0.000116394
2795.43	0.520813	1.52283e-05
2799.75	0.520782	7.99561e-06
2804.13	0.521515	8.9325e-05
2806.31	0.520905	7.04956e-06