File: Edgar/20240522/20240522/electrodeposition_pulsed_potential_20240522_A/pulses_3000_to_4000.txt
Time (s)	WE(1).Potential (V)	WE(1).Current (A)
4152.52	-0.697601	-0.0216461
4156.88	0.521179	6.83899e-05
4161.2	0.521729	1.23596e-05
4165.54	-0.698547	-0.0188049
4169.9	0.520782	6.39038e-05
4174.22	0.520691	1.92871e-05
4178.56	-0.698669	-0.0167389
4182.92	0.52124	5.44128e-05
4187.24	0.521393	1.23596e-05
4191.58	-0.697998	-0.015213
4195.94	0.520844	5.09949e-05
4200.26	0.520813	1.59302e-05
4204.62	-0.000244141	0.00521362
4208.96	0.52066	4.81262e-05
4213.28	0.520966	1.66016e-05
4217.64	0.000396729	0.00449463
4221.98	0.520905	4.37927e-05
4226.3	0.520935	1.38855e-05
4230.66	0.000454712	0.00390381
4235	0.52066	4.15955e-05
4239.32	0.521729	9.3689e-06
4243.68	0.000363159	0.00338135
4248.02	0.521088	3.61633e-05
4252.34	0.521667	8.48389e-06
4256.72	0.519836	0.015274
4261.04	0.520966	3.33252e-05
4265.36	0.521851	8.5144e-06
4269.74	0.520599	0.0129181
4274.06	0.520752	3.53699e-05
4278.38	0.521515	8.57544e-06
4282.76	0.520966	0.0106842
4287.08	0.521698	2.55127e-05
4291.4	0.52063	1.37634e-05
4295.78	0.520203	0.00822144
4300.1	0.521667	2.40479e-05
4304.42	0.520721	1.33057e-05
4308.8	0.521576	0.00351379
4313.12	0.520874	2.76184e-05
4317.44	0.520844	1.34888e-05
4321.82	0.521454	0.00114655
4326.14	0.520966	2.61841e-05
4330.46	0.521667	7.65991e-06
4334.84	0.520569	0.000591736
4339.16	0.521393	2.03247e-05
4343.48	0.521454	8.02612e-06
4347.86	0.520905	0.000357697
4352.18	0.52066	2.57568e-05
4356.5	0.520691	1.28784e-05
4360.88	0.521759	0.000233246
4365.2	0.521271	2.09045e-05
4369.52	0.520691	1.35193e-05
4373.9	0.520874	0.000171997
4378.22	0.521515	1.68762e-05
4382.54	0.521698	5.52368e-06
4386.92	0.520599	0.000133636
4391.24	0.520782	2.15759e-05
4395.56	0.520905	1.0498e-05
4399.94	0.521576	0.000101196
4404.26	0.521667	1.41296e-05
4408.58	0.52063	1.2146e-05
4412.96	0.520966	8.84094e-05
4417.28	0.520844	1.97754e-05
4421.62	-0.69751	-0.0219269
4425.98	0.521729	7.15942e-05
4430.3	0.52121	1.59302e-05
4434.64	-0.698517	-0.0191376
4439	0.521454	6.37207e-05
4443.32	0.52179	1.15967e-05
4447.66	-0.698029	-0.0170898
4452.02	0.521606	5.64575e-05
4456.34	0.521179	1.47705e-05
4460.68	-0.698914	-0.0155457
4465.04	0.521118	5.23376e-05
4469.36	0.521362	1.33972e-05
4473.72	0.000585937	0.00492035
4478.06	0.520813	4.95911e-05
4482.38	0.521729	1.02844e-05
4486.74	5.18799e-05	0.00423553
4491.08	0.521606	4.04968e-05
4495.4	0.520935	1.51672e-05
4499.76	0.00078125	0.0036731
4504.1	0.521545	3.66211e-05
4508.42	0.521362	1.23291e-05
4512.78	0.000723267	0.0031778
4517.12	0.521698	3.22876e-05
4521.44	0.521057	1.33362e-05
4525.82	0.519806	0.0152252
4530.14	0.521667	3.1189e-05
4534.46	0.52063	1.6571e-05
4538.84	0.520782	0.0129944
4543.16	0.521454	2.98767e-05
4547.48	0.521149	1.2207e-05
4551.86	0.52121	0.0108978
4556.18	0.521271	2.88696e-05
4560.5	0.521149	1.08337e-05
4564.88	0.521057	0.00868835
4569.2	0.521759	2.50244e-05
4573.52	0.521729	7.35474e-06
4577.9	0.520935	0.00520935
4582.22	0.520752	2.80151e-05
4586.54	0.521057	1.21765e-05
4590.92	0.521332	0.00151398
4595.24	0.520813	2.69165e-05
4599.56	0.520721	1.20544e-05
4603.94	0.521606	0.000740662
4608.26	0.521332	2.29797e-05
4612.58	0.521057	1.06201e-05
4616.96	0.520905	0.00043869
4621.28	0.521027	2.45972e-05
4625.6	0.521729	6.92749e-06
4629.98	0.521698	0.000283264
4634.3	0.521515	2.03552e-05
4638.62	0.520508	1.35498e-05
4643	0.521362	0.000200928
4647.32	0.521362	1.89514e-05
4651.64	0.521637	6.50024e-06
4656.02	0.521118	0.00014978
4660.34	0.52179	1.72729e-05
4664.66	0.520752	1.09253e-05
4669.04	0.521423	0.000115967
4673.36	0.520569	2.27051e-05
4677.68	0.521698	4.88281e-06
4682.06	0.520935	9.82056e-05
4686.38	0.520874	2.04163e-05
4690.72	-0.697845	-0.02211
4695.08	0.521759	7.79419e-05
4699.4	0.520752	2.04773e-05
4703.74	-0.69873	-0.0194244
4708.1	0.520935	7.11365e-05
4712.42	0.520935	1.81885e-05
4716.76	-0.698822	-0.0174255
4721.12	0.521057	6.19812e-05
4725.44	0.521362	1.65405e-05
4729.78	-0.697998	-0.0159027
4734.14	0.521729	5.11475e-05
4738.46	0.521149	1.60828e-05
4742.82	0.00057373	0.00463684
4747.16	0.520813	5.02014e-05
4751.48	0.52121	1.4679e-05
4755.84	0.000219727	0.00397522
4760.18	0.521027	4.53186e-05
4764.5	0.520966	1.60522e-05
4768.86	-0.000274658	0.00344635
4773.2	0.521057	4.20532e-05
4777.52	0.520691	1.67236e-05
4781.88	0.000570679	0.00297943
4786.22	0.520844	4.04968e-05
4790.54	0.521057	1.3092e-05
4794.92	0.520447	0.0151855
4799.24	0.521271	3.45154e-05
4803.56	0.52179	1.01013e-05
4807.94	0.520264	0.0130646
4812.26	0.520813	3.50037e-05
4816.58	0.521271	1.27563e-05
4820.96	0.520874	0.0110809
4825.28	0.521576	2.81982e-05
4829.6	0.520569	1.55334e-05
4833.98	0.521118	0.0090332
4838.3	0.521637	2.48718e-05
4842.62	0.520752	1.48926e-05
4847	0.520538	0.00633087
4851.32	0.521362	2.63367e-05
4855.64	0.521301	1.12305e-05
4860.02	0.521637	0.00198639
4864.34	0.521149	2.58179e-05
4868.66	0.521759	7.84302e-06
4873.04	0.521362	0.000918579
4877.36	0.521729	2.06299e-05
4881.68	0.521851	7.47681e-06
4886.06	0.521301	0.000533752
4890.38	0.521362	2.23389e-05
4894.7	0.521271	1.13831e-05
4899.08	0.521667	0.000341858
4903.4	0.521088	2.18201e-05
4907.72	0.521271	1.04675e-05
4912.1	0.520966	0.000238678
4916.42	0.52066	2.43835e-05
4920.74	0.521393	9.61304e-06
4925.12	0.521515	0.000172485
4929.44	0.521667	1.72729e-05
4933.76	0.521301	9.97925e-06
4938.14	0.52063	0.000137177
4942.46	0.521484	1.76086e-05
4946.78	0.521271	7.47681e-06
4951.16	0.520599	0.000109161
4955.48	0.521729	1.52283e-05
4959.82	-0.697998	-0.0222717
4964.18	0.521484	8.6792e-05
4968.5	0.520813	1.93787e-05
4972.84	-0.697662	-0.0196899
4977.2	0.520844	7.52869e-05
4981.52	0.521332	1.61438e-05
4985.86	-0.698639	-0.017746
4990.22	0.520782	6.76575e-05
4994.54	0.521637	1.24512e-05
4998.88	-0.697845	-0.0162354
5003.24	0.52066	6.12488e-05
5007.56	0.521088	1.4801e-05
5011.92	-0.000357056	0.00435577
5016.26	0.520538	5.5481e-05
5020.58	0.521515	1.27869e-05
5024.94	0.000341797	0.00371765
5029.28	0.52066	5.05371e-05
5033.6	0.52063	1.80969e-05
5037.96	0.000616455	0.0032077
5042.3	0.520691	4.63257e-05
5046.62	0.52066	1.62048e-05
5050.98	-0.000350952	0.00278961
5055.32	0.521088	4.10767e-05
5059.64	0.520752	1.63269e-05
5064.02	0.520782	0.0151489
5068.34	0.521667	3.40576e-05
5072.66	0.520691	1.61743e-05
5077.04	0.520203	0.0131073
5081.36	0.520752	3.64075e-05
5085.68	0.52121	1.19019e-05
5090.06	0.520996	0.0112335
5094.38	0.520599	3.58887e-05
5098.7	0.521423	1.12305e-05
5103.08	0.520813	0.00932922
5107.4	0.521729	2.74963e-05
5111.72	0.52063	1.51062e-05
5116.1	0.52124	0.00703308
5120.42	0.521698	2.45972e-05
5124.74	0.521088	1.22986e-05
5129.12	0.520782	0.00266144
5133.44	0.520782	2.91138e-05
5137.76	0.521362	1.15662e-05
5142.14	0.52124	0.00113831
5146.46	0.520844	2.82288e-05
5150.78	0.520752	1.43127e-05
5155.16	0.521515	0.000646973
5159.48	0.521698	2.11487e-05
5163.8	0.521332	9.765625E-06
5168.18	0.521759	0.00040976
5172.5	0.521149	2.21863e-05
5176.82	0.520996	1.04065e-05
5181.2	0.521301	0.000282898
5185.52	0.521667	1.81885e-05
5189.84	0.521179	1.0498e-05
5194.22	0.520752	0.000207703
5198.54	0.52063	2.43835e-05
5202.86	0.52066	1.37939e-05
5207.24	0.520752	0.000156158
5211.56	0.521545	1.78833e-05
5215.88	0.521729	5.70679e-06
5220.26	0.521179	0.000118073
5224.58	0.520844	2.00195e-05
5228.92	-0.697601	-0.0224731
5233.28	0.521271	9.61304e-05
5237.6	0.521606	1.828e-05
5241.94	-0.698608	-0.0199646
5246.3	0.521545	7.86133e-05
5250.62	0.520569	2.14844e-05
5254.96	-0.697754	-0.0180664
5259.32	0.521729	6.58569e-05
5263.64	0.521606	1.52588e-05
5267.98	-0.698456	-0.016571
5272.34	0.520874	6.38733e-05
5276.66	0.520935	1.74866e-05
5281.02	0.000421143	0.004086
5285.36	0.521729	5.02625e-05
5289.68	0.520599	1.87073e-05
5294.04	-0.000259399	0.00347504
5298.38	0.520874	5.0354e-05
5302.7	0.521515	1.29395e-05
5307.06	-0.000134277	0.0030011
5311.4	0.521545	4.22363e-05
5315.72	0.521698	1.15356e-05
5320.08	0.000692749	0.00259735
5324.42	0.521576	3.8208e-05
5328.74	0.521423	1.51367e-05
5333.12	0.520599	0.0151154
5337.44	0.521698	3.44238e-05
5341.76	0.520721	1.67542e-05
5346.14	0.520752	0.0131714
5350.46	0.521698	3.10974e-05
5354.78	0.521423	1.30615e-05
5359.16	0.520813	0.0113647
5363.48	0.521088	3.27148e-05
5367.8	0.521667	1.03149e-05
5372.18	0.520813	0.00958557
5376.5	0.52063	3.38745e-05
5380.82	0.521454	1.12915e-05
5385.2	0.520599	0.00754395
5389.52	0.521484	2.67334e-05
5393.84	0.521484	1.06506e-05
5398.22	0.520874	0.0036496
5402.54	0.521454	2.41699e-05
5406.86	0.521332	9.33838e-06
5411.24	0.52066	0.00141815
5415.56	0.52124	2.6062e-05
5419.88	0.521393	1.07422e-05
5424.26	0.520691	0.000787048
5428.58	0.521759	2.09351e-05
5432.9	0.521484	8.48389e-06
5437.28	0.521667	0.000492859
5441.6	0.521118	2.36511e-05
5445.92	0.520966	1.31531e-05
5450.3	0.520691	0.00034079
5452.48	0.521454	8.45337e-06