File: Edgar/20240522/20240522/electrodeposition_pulsed_potential_20240522_A/pulses_5000_to_6000.txt
Time (s)	WE(1).Potential (V)	WE(1).Current (A)
6798.75	-0.698303	-0.0230682
6803.11	0.521637	0.000193848
6807.43	0.521057	2.09961e-05
6811.77	-0.697968	-0.0210266
6816.13	0.520844	0.000157806
6820.45	0.521484	1.62048e-05
6824.79	-0.698639	-0.0193695
6829.15	0.521393	0.000123566
6833.47	0.520935	2.07214e-05
6837.81	-0.698669	-0.0180298
6842.17	0.521606	9.85718e-05
6846.49	0.520844	2.06604e-05
6850.85	0.000280762	0.00275787
6855.19	0.521027	8.65784e-05
6859.51	0.521545	1.47705e-05
6863.87	-0.000213623	0.00225403
6868.21	0.520569	7.57751e-05
6872.53	0.520752	1.97754e-05
6876.89	1.2207e-05	0.00190277
6881.23	0.52063	6.39343e-05
6885.55	0.520782	1.98059e-05
6889.91	-8.8501e-05	0.001633
6894.25	0.52066	5.69153e-05
6898.57	0.520874	1.87683e-05
6902.95	0.520752	0.0147522
6907.27	0.521027	4.97131e-05
6911.59	0.521759	1.08032e-05
6915.97	0.52002	0.0131836
6920.29	0.521698	4.03748e-05
6924.61	0.52179	1.13831e-05
6928.99	0.520294	0.011731
6933.31	0.521606	3.68958e-05
6937.63	0.520599	1.83716e-05
6942.01	0.520996	0.0103394
6946.33	0.520966	3.83606e-05
6950.65	0.521454	1.19629e-05
6955.03	0.520538	0.00891418
6959.35	0.521667	3.09753e-05
6963.67	0.521332	1.35803e-05
6968.05	0.521423	0.00718872
6972.37	0.521698	2.771e-05
6976.69	0.521362	1.20239e-05
6981.07	0.521057	0.00381622
6985.39	0.52066	3.25928e-05
6989.71	0.520874	1.52283e-05
6994.09	0.52124	0.00179565
6998.41	0.520966	2.85339e-05
7002.73	0.521088	1.22681e-05
7007.11	0.520691	0.00110107
7011.43	0.520935	2.79846e-05
7015.75	0.520874	1.33362e-05
7020.13	0.521515	0.000735779
7024.45	0.521118	2.52686e-05
7028.77	0.521332	1.10168e-05
7033.15	0.521393	0.000524902
7037.47	0.521393	2.16064e-05
7041.79	0.521027	1.24207e-05
7046.17	0.521606	0.000382416
7050.49	0.521637	1.87683e-05
7054.81	0.52066	1.44653e-05
7059.19	0.521606	0.000288422
7063.51	0.520599	2.47498e-05
7067.85	-0.698029	-0.0232208
7072.21	0.521698	0.000221222
7076.53	0.521637	1.81274e-05
7080.87	-0.698578	-0.0211273
7085.23	0.521606	0.000172516
7089.55	0.521454	1.76086e-05
7093.89	-0.697662	-0.01953125
7098.25	0.521667	0.000137634
7102.57	0.520966	2.12708e-05
7106.91	-0.697815	-0.0182159
7111.27	0.521118	0.000112915
7115.59	0.520935	1.9989e-05
7119.95	1.52588e-05	0.00258148
7124.29	0.52066	9.68628e-05
7128.61	0.521454	1.62659e-05
7132.97	0.00050354	0.00208771
7137.31	0.520813	8.01086e-05
7141.63	0.520752	1.93481e-05
7145.99	0.000509644	0.00175781
7150.33	0.521362	6.62231e-05
7154.65	0.520966	1.81885e-05
7159.01	0.00065918	0.00149811
7163.35	0.520691	6.06384e-05
7167.67	0.521576	1.27563e-05
7172.05	0.520172	0.0146942
7176.37	0.521179	5.1178e-05
7180.69	0.52063	1.86462e-05
7185.07	0.520172	0.0131622
7189.39	0.521637	4.27856e-05
7193.71	0.520966	1.59912e-05
7198.09	0.52063	0.0117706
7202.41	0.521606	3.88489e-05
7206.73	0.521667	1.15356e-05
7211.11	0.52066	0.0104218
7215.43	0.520691	4.10156e-05
7219.75	0.521698	1.16577e-05
7224.13	0.520508	0.00903015
7228.45	0.521088	3.43628e-05
7232.77	0.520691	1.60217e-05
7237.15	0.520599	0.00739716
7241.47	0.521118	3.37219e-05
7245.79	0.52063	1.68457e-05
7250.17	0.520569	0.00451569
7254.49	0.520691	3.31726e-05
7258.81	0.520874	1.44958e-05
7263.19	0.521515	0.00207581
7267.51	0.520935	3.03345e-05
7271.83	0.520721	1.55945e-05
7276.21	0.520935	0.00124725
7280.53	0.521576	2.34375e-05
7284.85	0.521606	9.61304e-06
7289.23	0.521271	0.000836182
7293.55	0.521545	2.38037e-05
7297.87	0.521515	9.3689e-06
7302.25	0.521088	0.000593872
7306.57	0.521667	2.20947e-05
7310.89	0.520782	1.36414e-05
7315.27	0.521301	0.00043515
7319.59	0.52066	2.62756e-05
7323.91	0.521057	1.171875E-05
7328.29	0.520691	0.000332458
7332.61	0.521057	2.38342e-05
7336.95	-0.697662	-0.0233582
7341.31	0.520844	0.000256073
7345.63	0.52066	2.48718e-05
7349.97	-0.698578	-0.0213074
7354.33	0.52066	0.000201477
7358.65	0.521606	1.67847e-05
7362.99	-0.697754	-0.0197388
7367.35	0.521515	0.000156219
7371.67	0.52066	2.27051e-05
7376.01	-0.698456	-0.0184235
7380.37	0.520599	0.000131409
7384.69	0.521698	1.52588e-05
7389.05	0.000134277	0.00240601
7393.39	0.520752	0.000105591
7397.71	0.521637	1.45264e-05
7402.07	-0.000228882	0.00193726
7406.41	0.521149	8.90808e-05
7410.73	0.521515	1.38245e-05
7415.09	0.000494385	0.00161102
7419.43	0.521606	7.09839e-05
7423.75	0.521698	1.38855e-05
7428.11	0.00057373	0.00136749
7432.45	0.521667	6.00586e-05
7436.77	0.52066	1.94397e-05
7441.15	0.519867	0.0146515
7445.47	0.521698	5.23071e-05
7449.79	0.521271	1.44348e-05
7454.17	0.520691	0.0131531
7458.49	0.521484	4.67834e-05
7462.81	0.521637	1.2085e-05
7467.19	0.520721	0.011795
7471.51	0.521729	4.01306e-05
7475.83	0.521423	1.37024e-05
7480.21	0.520599	0.0104797
7484.53	0.52066	4.26941e-05
7488.85	0.520905	1.50452e-05
7493.23	0.520874	0.00913696
7497.55	0.521271	3.54004e-05
7501.87	0.521667	1.03455e-05
7506.25	0.520416	0.00758972
7510.57	0.52066	3.6499e-05
7514.89	0.521149	1.2146e-05
7519.27	0.521484	0.00500153
7523.59	0.521667	2.93579e-05
7527.91	0.521423	1.19629e-05
7532.29	0.521393	0.00229889
7536.61	0.521332	2.87476e-05
7540.93	0.52124	1.10779e-05
7545.31	0.520935	0.00137512
7549.63	0.521545	2.46887e-05
7553.95	0.520599	1.60522e-05
7558.33	0.521088	0.000922546
7562.65	0.52121	2.54517e-05
7566.97	0.521759	7.62939e-06
7571.35	0.521484	0.000651245
7575.67	0.52124	2.24609e-05
7579.99	0.521088	1.23291e-05
7584.37	0.521667	0.000480713
7588.69	0.52063	2.60315e-05
7593.01	0.520782	1.34583e-05
7597.39	0.520691	0.000368378
7601.71	0.520813	2.3407e-05
7606.05	-0.697845	-0.0234283
7610.41	0.520691	0.000284943
7614.73	0.520782	2.41394e-05
7619.07	-0.698425	-0.0214264
7623.43	0.521179	0.000220825
7627.75	0.521698	1.71814e-05
7632.09	-0.698151	-0.019873
7636.45	0.521118	0.000177124
7640.77	0.521637	1.65405e-05
7645.11	-0.697937	-0.0186005
7649.47	0.52063	0.000144592
7653.79	0.521088	2.02942e-05
7658.15	0.0003479	0.00224487
7662.49	0.520752	0.00011795
7666.81	0.52121	1.84631e-05
7671.17	0.000604248	0.00178894
7675.51	0.520569	9.95789e-05
7679.83	0.520813	2.0813e-05
7684.19	0.000134277	0.00148041
7688.53	0.521667	7.69958e-05
7692.85	0.521637	1.43433e-05
7697.21	0.000714111	0.00124939
7701.55	0.521545	6.71082e-05
7705.87	0.521484	1.31836e-05
7710.25	0.520386	0.0146088
7714.57	0.521637	5.61523e-05
7718.89	0.521606	1.20544e-05
7723.27	0.52002	0.0131439
7727.59	0.521698	4.90723e-05
7731.91	0.521271	1.46179e-05
7736.29	0.521088	0.0118011
7740.61	0.520905	4.81262e-05
7744.93	0.520721	1.8158e-05
7749.31	0.520905	0.0105164
7753.63	0.52124	4.17786e-05
7757.95	0.520782	1.55945e-05
7762.33	0.520691	0.00922241
7766.65	0.52121	3.70178e-05
7770.97	0.521637	1.04675e-05
7775.35	0.521393	0.00771484
7779.67	0.521484	3.26233e-05
7783.99	0.521454	1.2207e-05
7788.37	0.521362	0.00534973
7792.69	0.521667	2.9541e-05
7797.01	0.520966	1.30615e-05
7801.39	0.521606	0.00250092
7805.71	0.521698	2.7832e-05
7810.03	0.521698	9.12476e-06
7814.41	0.521698	0.00148987
7818.73	0.521088	2.83203e-05
7823.05	0.521484	1.05896e-05
7827.43	0.52063	0.00100525
7831.75	0.520782	2.91138e-05
7836.07	0.521606	8.36182e-06
7840.45	0.521606	0.000714722
7844.77	0.521667	2.18201e-05
7849.09	0.521667	8.54492e-06
7853.47	0.521637	0.00052887
7857.79	0.521423	2.20337e-05
7862.11	0.520966	1.20544e-05
7866.49	0.520721	0.000404541
7870.81	0.521271	2.15149e-05
7875.15	-0.698364	-0.0234894
7879.51	0.520691	0.000314545
7883.83	0.521484	1.89514e-05
7888.17	-0.697968	-0.0215271
7892.53	0.521362	0.000241913
7896.85	0.52121	2.06299e-05
7901.19	-0.698456	-0.0200012
7905.55	0.520691	0.000198059
7909.87	0.520935	2.19116e-05
7914.21	-0.698273	-0.0187469
7918.57	0.521393	0.000156036
7922.89	0.521454	1.67236e-05
7927.25	-0.000280762	0.00211731
7931.59	0.520874	0.000128967
7935.91	0.520966	1.93787e-05
7940.27	-0.00027771	0.00167328
7944.61	0.521637	0.000102173
7948.93	0.52066	2.05994e-05
7953.29	3.05176e-06	0.00137665
7957.63	0.521423	8.59375E-05
7961.95	0.520935	1.78223e-05
7966.31	0.000683594	0.00115387
7970.65	0.521454	7.21436e-05
7974.97	0.521576	1.31836e-05
7979.35	0.520935	0.014563
7983.67	0.520996	6.41785e-05
7987.99	0.520874	1.70898e-05
7992.38	0.52063	0.0131531
7996.7	0.521332	5.40466e-05
8001.02	0.520905	1.68152e-05
8005.4	0.520477	0.0118439
8009.72	0.520935	5.16052e-05
8014.04	0.520721	1.84326e-05
8018.42	0.52124	0.0105804
8022.74	0.521423	4.2572e-05
8027.06	0.521515	1.16882e-05
8031.44	0.520721	0.00931091
8035.76	0.521057	4.01001e-05
8040.08	0.520935	1.45264e-05
8044.46	0.521027	0.00784607
8048.78	0.521515	3.50342e-05
8053.1	0.521545	1.15051e-05
8057.48	0.521393	0.00562531
8061.8	0.521301	3.21655e-05
8066.12	0.521484	1.14441e-05
8070.5	0.520691	0.00269806
8074.82	0.520782	3.2074e-05
8079.14	0.521667	1.10168e-05
8083.52	0.521667	0.0015979
8087.84	0.52063	3.0304e-05
8092.16	0.521454	1.05896e-05
8096.54	0.52124	0.00107727
8098.72	0.520935	1.12305e-05