File: Edgar/20210811 (1)/pruebas/fra_test1_EIS_data.txt
"Z60W Data File: Version 1.1"
""
""
""
""
""
""
""
0,2,0,1,1,100000
50
"  Freq (Hz)    Ampl     Bias   Time(Sec)   Z'(a)    Z''(b)    GD   Err   Range"
100000,0,0,0,100.169,-2.22343,0,0,0
79060,0,0,0,100.161,-2.54855,0,0,0
62506,0,0,0,100.138,-3.0204,0,0,0
49417,0,0,0,100.148,-3.65681,0,0,0
39069,0,0,0,100.164,-4.49571,0,0,0
30888,0,0,0,100.171,-5.57655,0,0,0
24421,0,0,0,100.199,-6.96055,0,0,0
19307,0,0,0,100.236,-8.72716,0,0,0
15264,0,0,0,100.293,-10.9658,0,0,0
12068,0,0,0,100.408,-13.8132,0,0,0
9541,0,0,0,100.548,-17.4144,0,0,0
7543.1,0,0,0,100.764,-21.9664,0,0,0
5963.6,0,0,0,101.063,-27.7163,0,0,0
4714.9,0,0,0,101.581,-34.9932,0,0,0
3727.6,0,0,0,102.365,-44.1693,0,0,0
2947.1,0,0,0,103.592,-55.7388,0,0,0
2330,0,0,0,105.478,-70.2712,0,0,0
1842.1,0,0,0,108.531,-88.5588,0,0,0
1456.3,0,0,0,113.265,-111.35,0,0,0
1151.4,0,0,0,120.854,-139.711,0,0,0
910.3,0,0,0,132.563,-174.467,0,0,0
719.69,0,0,0,150.725,-216.461,0,0,0
568.99,0,0,0,178.232,-265.562,0,0,0
449.84,0,0,0,219.108,-320.886,0,0,0
355.65,0,0,0,277.009,-378.372,0,0,0
281.18,0,0,0,355.34,-432.426,0,0,0
222.3,0,0,0,453.194,-473.714,0,0,0
175.75,0,0,0,565.574,-493.911,0,0,0
138.95,0,0,0,680.343,-487.596,0,0,0
109.85,0,0,0,787.192,-456.637,0,0,0
86.851,0,0,0,876.23,-408.023,0,0,0
68.665,0,0,0,945.013,-351.343,0,0,0
54.287,0,0,0,994.613,-294.182,0,0,0
42.919,0,0,0,1028.5,-241.438,0,0,0
33.932,0,0,0,1051.63,-195.648,0,0,0
26.827,0,0,0,1066.23,-157.107,0,0,0
21.21,0,0,0,1075.53,-125.413,0,0,0
16.768,0,0,0,1081.46,-99.8403,0,0,0
13.257,0,0,0,1085.47,-79.2128,0,0,0
10.481,0,0,0,1087.47,-62.8375,0,0,0
8.2864,0,0,0,1088.92,-49.736,0,0,0
6.5513,0,0,0,1090.23,-39.3723,0,0,0
5.1795,0,0,0,1090.52,-31.0898,0,0,0
4.0949,0,0,0,1091.21,-24.5844,0,0,0
3.2375,0,0,0,1091.68,-19.4857,0,0,0
2.5595,0,0,0,1091.48,-15.4914,0,0,0
2.0236,0,0,0,1091.66,-12.1715,0,0,0
1.5999,0,0,0,1091.34,-9.55568,0,0,0
1.2649,0,0,0,1091.43,-7.6233,0,0,0
1,0,0,0,1091.98,-6.10743,0,0,0