File: Edgar/20210811 (1)/pruebas/fra_test1_EIS_data_1_b.txt
"Z60W Data File: Version 1.1"
""
""
""
""
""
""
""
0,2,0,1,0,1,100000
7
"  Freq (Hz)    Ampl     Bias   Time(Sec)   Z'(a)    Z''(b)    GD   Err   Range"
100000,0,0,0,100.179,-2.39101,0,0,0
10000,0,0,0,100.515,-16.6412,0,0,0
1000,0,0,0,127.318,-159.818,0,0,0
100,0,0,0,826.01,-439.525,0,0,0
10,0,0,0,1087.68,-59.5418,0,0,0
1,0,0,0,1092.3,-6.42829,0,0,0
0.1,0,0,0,1092.27,-0.666865,0,0,0