File: Edgar/20210811 (1)/pruebas/fra_test1_EIS_data_1.txt
"Z60W Data File: Version 1.1"
""
""
""
""
""
""
""
0,2,0,1,0,1,100000
61
"  Freq (Hz)    Ampl     Bias   Time(Sec)   Z'(a)    Z''(b)    GD   Err   Range"
100000,0,0,0,100.166,-2.35015,0,0,0
79433,0,0,0,100.187,-2.63772,0,0,0
63096,0,0,0,100.141,-3.07587,0,0,0
50119,0,0,0,100.111,-3.67165,0,0,0
39811,0,0,0,100.17,-4.46615,0,0,0
31623,0,0,0,100.178,-5.49532,0,0,0
25119,0,0,0,100.213,-6.81177,0,0,0
19953,0,0,0,100.262,-8.4796,0,0,0
15849,0,0,0,100.314,-10.5879,0,0,0
12589,0,0,0,100.401,-13.2701,0,0,0
10000,0,0,0,100.57,-16.6435,0,0,0
7943.3,0,0,0,100.691,-20.8719,0,0,0
6309.6,0,0,0,100.968,-26.2161,0,0,0
5011.9,0,0,0,101.462,-32.9518,0,0,0
3981.1,0,0,0,102.082,-41.3774,0,0,0
3162.3,0,0,0,103.152,-51.9865,0,0,0
2511.9,0,0,0,104.904,-65.2472,0,0,0
1995.3,0,0,0,107.423,-81.8573,0,0,0
1584.9,0,0,0,111.374,-102.548,0,0,0
1258.9,0,0,0,117.615,-128.25,0,0,0
1000,0,0,0,127.31,-159.82,0,0,0
794.33,0,0,0,142.163,-197.916,0,0,0
630.96,0,0,0,164.711,-243.046,0,0,0
501.19,0,0,0,198.416,-294.886,0,0,0
398.11,0,0,0,246.798,-350.754,0,0,0
316.23,0,0,0,313.713,-406.519,0,0,0
251.19,0,0,0,400.274,-454.791,0,0,0
199.53,0,0,0,503.557,-485.988,0,0,0
158.49,0,0,0,616.426,-494.612,0,0,0
125.89,0,0,0,726.928,-477.234,0,0,0
100,0,0,0,826.246,-439.529,0,0,0
79.433,0,0,0,904.034,-386.764,0,0,0
63.096,0,0,0,964.562,-330.454,0,0,0
50.119,0,0,0,1007.73,-275.458,0,0,0
39.811,0,0,0,1037.24,-225.997,0,0,0
31.623,0,0,0,1057.15,-183.355,0,0,0
25.119,0,0,0,1069.79,-147.464,0,0,0
19.953,0,0,0,1077,-118.469,0,0,0
15.849,0,0,0,1082.12,-94.4782,0,0,0
12.589,0,0,0,1085.82,-75.3658,0,0,0
10,0,0,0,1088.07,-59.9211,0,0,0
7.9433,0,0,0,1089.39,-47.7898,0,0,0
6.3096,0,0,0,1090.25,-38.2648,0,0,0
5.0119,0,0,0,1089.99,-30.2389,0,0,0
3.9811,0,0,0,1091.2,-23.9358,0,0,0
3.1623,0,0,0,1091.3,-18.896,0,0,0
2.5119,0,0,0,1091.65,-14.9961,0,0,0
1.9953,0,0,0,1091.48,-12.0903,0,0,0
1.5849,0,0,0,1091.54,-9.58949,0,0,0
1.2589,0,0,0,1091.46,-7.62952,0,0,0
1,0,0,0,1091.55,-5.96565,0,0,0
0.79433,0,0,0,1092.23,-5.17339,0,0,0
0.63096,0,0,0,1092.31,-3.82313,0,0,0
0.50119,0,0,0,1091.94,-3.01238,0,0,0
0.39811,0,0,0,1092.8,-2.45069,0,0,0
0.31623,0,0,0,1092.33,-1.86775,0,0,0
0.25119,0,0,0,1091.69,-1.564,0,0,0
0.19953,0,0,0,1092.07,-1.29315,0,0,0
0.15849,0,0,0,1092.24,-0.934512,0,0,0
0.12589,0,0,0,1091.99,-0.742511,0,0,0
0.1,0,0,0,1092.08,-0.493669,0,0,0