File: Edgar/20210811 (1)/pruebas/fra_test1_EIS_data_2.txt
"Z60W Data File: Version 1.1"
""
""
""
""
""
""
""
0,2,0,1,0,1,1000
41
"  Freq (Hz)    Ampl     Bias   Time(Sec)   Z'(a)    Z''(b)    GD   Err   Range"
1000,0,0,0,127.276,-159.762,0,0,0
794.33,0,0,0,142.17,-197.941,0,0,0
630.96,0,0,0,164.776,-243.14,0,0,0
501.19,0,0,0,198.362,-294.802,0,0,0
398.11,0,0,0,246.855,-350.792,0,0,0
316.23,0,0,0,313.624,-406.411,0,0,0
251.19,0,0,0,400.228,-454.388,0,0,0
199.53,0,0,0,503.712,-486.25,0,0,0
158.49,0,0,0,616.603,-494.843,0,0,0
125.89,0,0,0,727.216,-477.352,0,0,0
100,0,0,0,826.382,-439.627,0,0,0
79.433,0,0,0,904.364,-386.838,0,0,0
63.096,0,0,0,965.058,-330.529,0,0,0
50.119,0,0,0,1007.77,-275.575,0,0,0
39.811,0,0,0,1037.39,-226.114,0,0,0
31.623,0,0,0,1056.74,-183.152,0,0,0
25.119,0,0,0,1069.25,-147.279,0,0,0
19.953,0,0,0,1077.08,-118.097,0,0,0
15.849,0,0,0,1082.82,-94.365,0,0,0
12.589,0,0,0,1086.03,-75.2009,0,0,0
10,0,0,0,1088.25,-59.7905,0,0,0
7.9433,0,0,0,1089.54,-47.4351,0,0,0
6.3096,0,0,0,1090.87,-37.8781,0,0,0
5.0119,0,0,0,1090.57,-30.1281,0,0,0
3.9811,0,0,0,1091.78,-23.931,0,0,0
3.1623,0,0,0,1091.22,-19.2287,0,0,0
2.5119,0,0,0,1091.37,-15.2992,0,0,0
1.9953,0,0,0,1091.57,-11.9033,0,0,0
1.5849,0,0,0,1091.72,-9.41532,0,0,0
1.2589,0,0,0,1091.79,-7.54385,0,0,0
1,0,0,0,1091.44,-6.03738,0,0,0
0.79433,0,0,0,1091.84,-4.77478,0,0,0
0.63096,0,0,0,1092.23,-3.99662,0,0,0
0.50119,0,0,0,1092.26,-3.24216,0,0,0
0.39811,0,0,0,1092.49,-2.20024,0,0,0
0.31623,0,0,0,1091.84,-2.01714,0,0,0
0.25119,0,0,0,1092.64,-1.41266,0,0,0
0.19953,0,0,0,1092.18,-1.12944,0,0,0
0.15849,0,0,0,1092.06,-0.822411,0,0,0
0.12589,0,0,0,1091.82,-0.841771,0,0,0
0.1,0,0,0,1092.34,-0.60858,0,0,0