File: Edgar/20240517/20240517/electrodeposition_pulsed_potential_20240517_A/OCP_3
Time (s)	WE(1).Potential (V)
8123.52	0.544434
8124.52	0.53894
8125.52	0.533752
8126.52	0.529175
8127.52	0.524597
8128.52	0.520325
8129.52	0.516663
8130.52	0.513
8131.52	0.509644
8132.52	0.506287
8133.52	0.50354
8134.52	0.500793
8135.52	0.498077
8136.52	0.495728
8137.52	0.493591
8138.52	0.491608
8139.52	0.489807
8140.52	0.488098
8141.52	0.486572
8142.52	0.485107
8143.52	0.483795
8144.52	0.482574
8145.52	0.481476
8146.52	0.480438
8147.52	0.479462
8148.52	0.478577
8149.52	0.477753
8150.52	0.47699
8151.52	0.476379
8152.52	0.476349
8153.52	0.475983
8154.52	0.475403
8155.52	0.474823
8156.52	0.474304
8157.52	0.473816
8158.52	0.473389
8159.52	0.472992
8160.52	0.472626
8161.52	0.47229
8162.52	0.471954
8163.52	0.47168
8164.52	0.471466
8165.52	0.471283
8166.52	0.4711
8167.52	0.470947
8168.52	0.470764
8169.52	0.470612
8170.52	0.470459
8171.52	0.470306
8172.52	0.470215
8173.52	0.470093
8174.52	0.469971
8175.52	0.469879
8176.52	0.469818
8177.52	0.469757
8178.52	0.469696
8179.52	0.469635
8180.52	0.469604
8181.52	0.469543
8182.52	0.46936
8183.52	0.469482
8184.52	0.469452
8185.52	0.469421
8186.52	0.469391
8187.52	0.46936
8188.52	0.46936
8189.52	0.46933
8190.52	0.46936
8191.52	0.46936
8192.52	0.469391
8193.52	0.469391
8194.52	0.469391
8195.52	0.469391
8196.52	0.469421
8197.52	0.469421
8198.52	0.469421
8199.52	0.469452
8200.52	0.469513
8201.52	0.469513
8202.52	0.469543
8203.52	0.469574
8204.52	0.469604
8205.52	0.469635
8206.52	0.469666
8207.52	0.469696
8208.52	0.469727
8209.52	0.469757
8210.52	0.469788
8211.52	0.469849
8212.52	0.469849
8213.52	0.46991
8214.52	0.46991
8215.52	0.46994
8216.52	0.469971
8217.52	0.469971
8218.52	0.469971
8219.52	0.470001
8220.52	0.470032
8221.52	0.470062
8222.52	0.470093
8223.52	0.470154
8224.52	0.470184
8225.52	0.470245
8226.52	0.470245
8227.52	0.470276
8228.52	0.470306
8229.52	0.470337
8230.52	0.470398
8231.52	0.470398
8232.52	0.470459
8233.52	0.47052
8234.52	0.470551
8235.52	0.470581
8236.52	0.470612
8237.52	0.470642
8238.52	0.470703
8239.52	0.470734
8240.52	0.470795
8241.52	0.470856
8242.52	0.470886
8243.52	0.470917
8244.52	0.471008
8245.52	0.471039
8246.52	0.4711
8247.52	0.47113
8248.52	0.471161
8249.52	0.471191
8250.52	0.471252
8251.52	0.471252
8252.52	0.471283
8253.52	0.471344
8254.52	0.471375
8255.52	0.471405
8256.52	0.471466
8257.52	0.471497
8258.52	0.471558
8259.52	0.471588
8260.52	0.471619
8261.52	0.471649
8262.52	0.47168
8263.52	0.471741
8264.52	0.471771
8265.52	0.471802
8266.52	0.471863
8267.52	0.471924
8268.52	0.472015
8269.52	0.472046
8270.52	0.472076
8271.52	0.472137
8272.52	0.472168
8273.52	0.472229
8274.52	0.472321
8275.52	0.472351
8276.52	0.472412
8277.52	0.472443
8278.52	0.472504
8279.52	0.472534
8280.52	0.472565
8281.52	0.472626
8282.52	0.472687
8283.52	0.472778
8284.52	0.472809
8285.52	0.47287
8286.52	0.4729
8287.52	0.472931
8288.52	0.472961
8289.52	0.473022
8290.52	0.473053
8291.52	0.473114
8292.52	0.473145
8293.52	0.473206
8294.52	0.473206
8295.52	0.473267
8296.52	0.473328
8297.52	0.473358
8298.52	0.473389
8299.52	0.47345
8300.52	0.47348
8301.52	0.47348
8302.52	0.473541