File: Edgar/20240517/20240517/electrodeposition_pulsed_potential_20240517_A/OCP_1
Time (s)	WE(1).Potential (V)
2.26674	0.509949
3.26674	0.510254
4.26674	0.510864
5.26674	0.511169
6.26674	0.51178
7.26674	0.512085
8.26674	0.51239
9.26674	0.513
10.2667	0.513306
11.2667	0.513611
12.2667	0.513916
13.2667	0.514526
14.2667	0.514832
15.2667	0.515137
16.2667	0.515442
17.2667	0.515747
18.2667	0.516357
19.2667	0.516663
20.2667	0.516968
21.2667	0.517273
22.2667	0.517578
23.2667	0.517883
24.2667	0.518494
25.2667	0.518799
26.2667	0.519104
27.2667	0.519409
28.2667	0.519714
29.2667	0.52002
30.2667	0.520325
31.2667	0.52063
32.2667	0.520935
33.2667	0.52124
34.2667	0.521545
35.2667	0.521851
36.2667	0.522156
37.2667	0.522461
38.2667	0.522766
39.2667	0.523071
40.2667	0.523376
41.2667	0.523682
42.2667	0.523987
43.2667	0.524292
44.2667	0.524292
45.2667	0.524597
46.2667	0.524902
47.2667	0.525208
48.2667	0.525513
49.2667	0.525818
50.2667	0.526123
51.2667	0.526428
52.2667	0.526428
53.2667	0.526733
54.2667	0.527039
55.2667	0.527344
56.2667	0.527649
57.2667	0.527954
58.2667	0.528259
59.2667	0.528259
60.2667	0.528564
61.2667	0.52887
62.2667	0.529175
63.2667	0.52948
64.2667	0.52948
65.2667	0.529785
66.2667	0.53009
67.2667	0.530396
68.2667	0.530396
69.2667	0.530701
70.2667	0.531006
71.2667	0.531311
72.2667	0.531311
73.2667	0.531616
74.2667	0.531921
75.2667	0.531921
76.2667	0.532227
77.2667	0.532532
78.2667	0.532837
79.2667	0.532837
80.2667	0.533142
81.2667	0.533447
82.2667	0.533752
83.2667	0.533752
84.2667	0.534058
85.2667	0.534363
86.2667	0.534363
87.2667	0.534668
88.2667	0.534973
89.2667	0.534973
90.2667	0.535278
91.2667	0.535583
92.2667	0.535583
93.2667	0.535889
94.2667	0.535889
95.2667	0.536194
96.2667	0.536499
97.2667	0.536499
98.2667	0.536804
99.2667	0.537109
100.267	0.537109
101.267	0.537415
102.267	0.537415
103.267	0.53772
104.267	0.538025
105.267	0.538025
106.267	0.53833
107.267	0.53833
108.267	0.538635
109.267	0.53894
110.267	0.53894
111.267	0.539246
112.267	0.539246
113.267	0.539551
114.267	0.539856
115.267	0.539856
116.267	0.540161
117.267	0.540161
118.267	0.540466
119.267	0.540466
120.267	0.540771
121.267	0.540771
122.267	0.541077
123.267	0.541382
124.267	0.541382
125.267	0.541687
126.267	0.541687
127.267	0.541992
128.267	0.541992
129.267	0.542297
130.267	0.542297
131.267	0.542603
132.267	0.542603
133.267	0.542908
134.267	0.542908
135.267	0.543213
136.267	0.543213
137.267	0.543518
138.267	0.543518
139.267	0.543823
140.267	0.543823
141.267	0.544128
142.267	0.544128
143.267	0.544434
144.267	0.544434
145.267	0.544739
146.267	0.544739
147.267	0.545044
148.267	0.545044
149.267	0.545349
150.267	0.545349
151.267	0.545654
152.267	0.545654
153.267	0.545959
154.267	0.545959
155.267	0.546265
156.267	0.546265
157.267	0.54657
158.267	0.54657
159.267	0.546875
160.267	0.546875
161.267	0.54718
162.267	0.54718
163.267	0.547485
164.267	0.547485
165.267	0.547485
166.267	0.547791
167.267	0.547791
168.267	0.548096
169.267	0.548096
170.267	0.548401
171.267	0.548401
172.267	0.548706
173.267	0.548706
174.267	0.548706
175.267	0.549011
176.267	0.549011
177.267	0.549316
178.267	0.549316
179.267	0.549622
180.267	0.549622
181.267	0.549622