File: Edgar/20240517/20240517/electrodeposition_pulsed_potential_20240517_A/pulses_4000_to_5000.txt
Time (s)	WE(1).Potential (V)	WE(1).Current (A)
5475.68	-0.696503	-0.0242065
5480.04	0.549927	1.68457e-05
5484.36	0.549408	-6.40869e-07
5488.7	-0.696411	-0.0204498
5493.06	0.550934	4.69971e-06
5497.38	0.549438	-1.28174e-06
5501.72	-0.696686	-0.0178467
5506.08	0.550171	6.46973e-06
5510.4	0.549896	-4.36401e-06
5514.74	-0.697754	-0.0157898
5519.1	0.549805	5.52368e-06
5523.42	0.551025	-1.2085e-05
5527.78	0.000531006	0.00752258
5532.12	0.550262	-7.93457e-07
5536.44	0.550659	-1.18408e-05
5540.8	0.00167236	0.0060495
5545.14	0.549194	7.04956e-06
5549.46	0.549347	-1.25122e-06
5553.82	0.00150452	0.00488342
5558.16	0.549377	4.42505e-06
5562.48	0.550598	-6.71387e-06
5566.84	0.00193787	0.00388855
5571.18	0.549713	3.96729e-07
5575.5	0.549774	-4.48608e-06
5579.88	0.550079	0.0170349
5584.2	0.550354	-5.98145e-06
5588.52	0.551025	-1.28784e-05
5592.9	0.549835	0.0134308
5597.22	0.551025	-9.09424e-06
5601.54	0.55014	-7.20215e-06
5605.92	0.550354	0.00960388
5610.24	0.550964	-1.00098e-05
5614.56	0.550201	-9.46045e-06
5618.94	0.550873	0.00244232
5623.26	0.549255	1.40381e-06
5627.58	0.550873	-1.27869e-05
5631.96	0.55014	0.00105103
5636.28	0.549438	-2.44141e-07
5640.6	0.550812	-1.34277e-05
5644.98	0.550781	0.000585327
5649.3	0.55014	-5.67627e-06
5653.62	0.550018	-6.95801e-06
5658	0.549225	0.000373627
5662.32	0.549774	-3.96729e-06
5666.64	0.549316	-2.19727e-06
5671.02	0.549347	0.000245544
5675.34	0.549683	-2.16675e-06
5679.66	0.549286	-6.10352e-07
5684.04	0.549561	0.00016684
5688.36	0.550964	-1.25122e-05
5692.68	0.549408	-2.92969e-06
5697.06	0.550537	0.000109894
5701.38	0.549896	-4.88281e-06
5705.7	0.549316	-2.44141e-06
5710.08	0.549316	8.30994e-05
5714.4	0.549866	-3.57056e-06
5718.72	0.551025	-1.15967e-05
5723.1	0.550781	4.73022e-05
5727.42	0.549377	-7.93457e-07
5731.74	0.550995	-1.3031e-05
5736.12	0.550537	3.33557e-05
5740.44	0.550568	-8.75854e-06
5744.78	-0.696289	-0.0243561
5749.14	0.549347	3.09753e-05
5753.46	0.549469	-1.28174e-06
5757.8	-0.697662	-0.0207031
5762.16	0.549896	2.11792e-05
5766.48	0.550659	-9.64355e-06
5770.82	-0.696533	-0.0181366
5775.18	0.550171	1.16272e-05
5779.5	0.551086	-1.35498e-05
5783.84	-0.698059	-0.0161133
5788.2	0.550507	5.58472e-06
5792.52	0.549744	-2.80762e-06
5796.88	0.000582886	0.00726166
5801.22	0.549469	7.87354e-06
5805.54	0.549286	3.05176e-08
5809.9	0.00189209	0.005849
5814.24	0.549896	4.48608e-06
5818.56	0.549927	-4.05884e-06
5822.92	0.000643921	0.00474396
5827.26	0.549347	5.06592e-06
5831.58	0.550934	-1.26953e-05
5835.94	0.001953125	0.00378998
5840.28	0.550262	-3.17383e-06
5844.6	0.551025	-1.36108e-05
5848.98	0.548828	0.0171417
5853.3	0.55011	-2.56348e-06
5857.62	0.55072	-1.15662e-05
5862	0.5495	0.0136688
5866.32	0.549286	1.00708e-06
5870.64	0.550629	-7.38525e-06
5875.02	0.550568	0.0100952
5879.34	0.550568	-5.52368e-06
5883.66	0.549622	-3.26538e-06
5888.04	0.54953	0.00309479
5892.36	0.550903	-9.49097e-06
5896.68	0.549957	-5.31006e-06
5901.06	0.54953	0.00124237
5905.38	0.549744	-1.89209e-06
5909.7	0.549347	-7.32422e-07
5914.08	0.550812	0.000692749
5918.4	0.549744	-2.62451e-06
5922.72	0.54953	-2.22778e-06
5927.1	0.549164	0.000443695
5931.42	0.549866	-1.95313e-06
5935.74	0.549805	-1.89209e-06
5940.12	0.550934	0.000285126
5944.44	0.550842	-1.08643e-05
5948.76	0.551056	-1.44348e-05
5953.14	0.550507	0.000195068
5957.46	0.55072	-8.97217e-06
5961.78	0.549896	-5.06592e-06
5966.16	0.550812	0.000131042
5970.48	0.551025	-9.64355e-06
5974.8	0.55011	-9.91821e-06
5979.18	0.54953	0.00010318
5983.5	0.550537	-7.56836e-06
5987.82	0.549866	-5.43213e-06
5992.2	0.549866	7.04956e-05
5996.52	0.5495	-1.86157e-06
6000.84	0.550812	-1.17493e-05
6005.22	0.549347	5.54504e-05
6009.54	0.550079	-6.65283e-06
6013.88	-0.697083	-0.024527
6018.24	0.550568	3.15857e-05
6022.56	0.549957	-6.53076e-06
6026.9	-0.696411	-0.0209473
6031.26	0.551117	1.91956e-05
6035.58	0.55014	-4.54712e-06
6039.92	-0.697418	-0.0184174
6044.28	0.549316	2.22778e-05
6048.6	0.550659	-9.85718e-06
6052.94	-0.697998	-0.0164185
6057.3	0.549652	1.43738e-05
6061.62	0.550262	-8.57544e-06
6065.98	0.00177002	0.007005
6070.32	0.549774	8.88062e-06
6074.64	0.550751	-1.08643e-05
6079	0.0015564	0.00564697
6083.34	0.549316	1.0376e-05
6087.66	0.549408	-2.96021e-06
6092.02	0.00137939	0.00457703
6096.36	0.550598	-3.60107e-06
6100.68	0.549377	-1.92261e-06
6105.04	0.00198364	0.00367157
6109.38	0.550903	-1.98364e-06
6113.7	0.550873	-1.40381e-05
6118.08	0.550262	0.0171967
6122.4	0.549286	4.91333e-06
6126.72	0.549225	-2.62451e-06
6131.1	0.549072	0.0138397
6135.42	0.549988	-1.40381e-06
6139.74	0.549927	-6.56128e-06
6144.12	0.549896	0.0104797
6148.44	0.549377	2.50244e-06
6152.76	0.550171	-7.99561e-06
6157.14	0.549957	0.00394073
6161.46	0.549744	-8.8501e-07
6165.78	0.549561	-3.479e-06
6170.16	0.549408	0.00144165
6174.48	0.549377	3.44849e-06
6178.8	0.550201	-9.18579e-06
6183.18	0.549896	0.000809937
6187.5	0.549744	-1.86157e-06
6191.82	0.549286	-2.19727e-06
6196.2	0.549225	0.000516663
6200.52	0.550354	-6.95801e-06
6204.84	0.551056	-1.30615e-05
6209.22	0.549866	0.000345428
6213.54	0.549683	6.10352e-08
6217.86	0.549347	-1.34277e-06
6222.24	0.550598	0.000234344
6226.56	0.549683	-3.14331e-06
6230.88	0.549408	-2.80762e-06
6235.26	0.550934	0.000162476
6239.58	0.551147	-1.2207e-05
6243.9	0.549286	-1.15967e-06
6248.28	0.550568	0.000116119
6252.6	0.549347	-7.62939e-07
6256.92	0.550537	-1.04065e-05
6261.3	0.551025	8.04749e-05
6265.62	0.551025	-1.09863e-05
6269.94	0.549652	-5.37109e-06
6274.32	0.550354	6.40259e-05
6278.64	0.550293	-7.08008e-06
6282.98	-0.696747	-0.0246368
6287.34	0.549683	4.67224e-05
6291.66	0.549377	-2.16675e-06
6296	-0.697876	-0.0211426
6300.36	0.550262	3.43323e-05
6304.68	0.549957	-8.05664e-06
6309.02	-0.696503	-0.0186615
6313.38	0.550385	2.49023e-05
6317.7	0.549866	-6.34766e-06
6322.04	-0.69812	-0.0166901
6326.4	0.55011	1.62964e-05
6330.72	0.549255	1.2207e-07
6335.08	0.00177612	0.00675476
6339.42	0.550842	5.00488e-06
6343.74	0.549866	-3.479e-06
6348.1	0.001953125	0.00545349
6352.44	0.550873	2.38037e-06
6356.76	0.549469	-1.34277e-06
6361.12	0.00182495	0.0044165
6365.46	0.550659	-4.27246e-07
6369.78	0.550201	-9.70459e-06
6374.14	0.00133667	0.00356506
6378.48	0.549713	7.53784e-06
6382.8	0.550873	-1.25122e-05
6387.18	0.550018	0.0172241
6391.5	0.551056	-7.47681e-06
6395.82	0.550598	-1.09558e-05
6400.2	0.550293	0.0139893
6404.52	0.549316	4.82178e-06
6408.84	0.550751	-1.12e-05
6413.22	0.550598	0.0107819
6417.54	0.549622	9.76562e-07
6421.86	0.550842	-1.48926e-05
6426.24	0.549957	0.00512756
6430.56	0.549469	3.60107e-06
6434.88	0.550812	-1.25122e-05
6439.26	0.550964	0.00163788
6443.58	0.550995	-9.67407e-06
6447.9	0.550018	-6.74438e-06
6452.28	0.550995	0.000915222
6456.6	0.549286	2.53296e-06
6460.92	0.549225	3.05176e-07
6465.3	0.550812	0.000581055
6469.62	0.549164	2.50244e-06
6473.94	0.550964	-1.3031e-05
6478.32	0.550598	0.000390808
6482.64	0.549988	-4.69971e-06
6486.96	0.550629	-1.3092e-05
6491.34	0.550415	0.000275665
6495.66	0.550903	-7.84302e-06
6499.98	0.549286	-8.54492e-07
6504.36	0.549438	0.000202667
6508.68	0.550873	-9.49097e-06
6513	0.55011	-7.14111e-06
6517.38	0.550171	0.000145905
6521.7	0.551056	-1.12305e-05
6526.02	0.549194	-3.35693e-07
6530.4	0.550842	0.000103729
6534.72	0.549469	-9.15527e-07
6539.04	0.550964	-1.20239e-05
6543.42	0.550568	7.53174e-05
6547.74	0.549286	1.34277e-06
6552.08	-0.697296	-0.0247162
6556.44	0.549927	5.52368e-05
6560.76	0.551117	-1.07117e-05
6565.1	-0.696472	-0.0213287
6569.46	0.550995	3.58582e-05
6573.78	0.549377	1.52588e-07
6578.12	-0.696564	-0.0188721
6582.48	0.551056	2.48413e-05
6586.8	0.549408	-6.10352e-08
6591.14	-0.697693	-0.0169342
6595.5	0.549438	2.72522e-05
6599.82	0.550385	-1.06201e-05
6604.18	0.000405884	0.0065387
6608.52	0.551025	9.94873e-06
6612.84	0.549957	-5.12695e-06
6617.2	0.0018219	0.00527527
6621.54	0.549255	1.46484e-05
6625.86	0.549286	4.27246e-07
6630.22	0.000869751	0.00429749
6634.56	0.549408	1.14746e-05
6638.88	0.549194	-1.31226e-06
6643.24	0.000823975	0.0034729
6647.58	0.551025	-2.7771e-06
6651.9	0.550995	-1.32141e-05
6656.28	0.549713	0.0172913
6660.6	0.550446	-3.54004e-06
6664.92	0.551086	-1.38245e-05
6669.3	0.549164	0.0141235
6673.62	0.551056	-5.76782e-06
6677.94	0.549255	-3.96729e-07
6682.32	0.55011	0.0110413
6686.64	0.550415	-3.96729e-06
6690.96	0.549469	-2.50244e-06
6695.34	0.549377	0.00622742
6699.66	0.550781	-6.19507e-06
6703.98	0.549347	-1.28174e-06
6708.36	0.550598	0.00184357
6712.68	0.549286	3.75366e-06
6717	0.549316	-2.44141e-06
6721.38	0.550323	0.00102722
6725.7	0.549622	-1.5564e-06
6730.02	0.549652	-7.47681e-06
6734.4	0.550171	0.000654907
6738.72	0.550293	-6.71387e-06
6743.04	0.549622	-4.42505e-06
6747.42	0.549377	0.000453064
6751.74	0.549561	-3.96729e-07
6756.06	0.550659	-1.12915e-05
6760.44	0.549408	0.000321411
6764.76	0.54953	-1.77002e-06
6769.08	0.549713	-4.73022e-06
6773.46	0.551086	0.000222626
6775.64	0.549377	-6.71387e-07