File: Edgar/20240517/20240517/electrodeposition_pulsed_potential_20240517_A/pulses_0_to_1000.txt
Time (s)	WE(1).Potential (V)	WE(1).Current (A)
182.062	-0.698425	-0.00346466
186.422	0.550201	-8.3313e-06
190.742	0.550262	-8.20923e-06
195.082	-0.698456	-0.00267029
199.442	0.550201	-5.31006e-06
203.762	0.550232	-8.57544e-06
208.102	-0.698425	-0.00256592
212.462	0.550171	-3.8147e-06
216.782	0.550171	-6.5918e-06
221.122	-0.698486	-0.00252869
225.482	0.550201	-3.90625e-06
229.802	0.550201	-5.0354e-06
234.162	0.00115662	0.00038031
238.502	0.550201	-3.08228e-06
242.822	0.550201	-6.13403e-06
247.182	0.00113831	0.000135223
251.522	0.550232	-1.7395e-06
255.842	0.55014	-6.073e-06
260.202	0.00110779	7.51038e-05
264.542	0.550232	-1.83105e-06
268.862	0.550232	-4.15039e-06
273.222	0.00109863	4.66309e-05
277.562	0.550171	-1.61743e-06
281.882	0.550232	-4.88281e-06
286.262	0.550201	9.36584e-05
290.582	0.550171	-2.50244e-06
294.902	0.550201	-5.5542e-06
299.282	0.550232	4.65088e-05
303.602	0.550232	-2.16675e-06
307.922	0.550171	-5.40161e-06
312.302	0.55014	2.97852e-05
316.622	0.550232	-2.34985e-06
320.942	0.550232	-5.85937e-06
325.322	0.55014	2.06604e-05
329.642	0.550171	-3.54004e-06
333.962	0.550201	-5.06592e-06
338.342	0.55014	1.57166e-05
342.662	0.550171	-4.42505e-06
346.982	0.550201	-5.76782e-06
351.362	0.550201	1.14746e-05
355.682	0.55014	-3.8147e-06
360.002	0.550171	-7.14111e-06
364.382	0.550171	7.65991e-06
368.702	0.550171	-4.85229e-06
373.022	0.550171	-6.01196e-06
377.402	0.550171	5.09644e-06
381.722	0.550201	-4.5166e-06
386.042	0.550201	-6.43921e-06
390.422	0.550201	4.21143e-06
394.742	0.550171	-5.37109e-06
399.062	0.550201	-6.19507e-06
403.442	0.550201	2.86865e-06
407.762	0.550201	-4.63867e-06
412.082	0.550201	-6.74438e-06
416.462	0.550171	2.28882e-06
420.782	0.550171	-4.88281e-06
425.102	0.55011	-7.17163e-06
429.482	0.550201	6.71387e-07
433.802	0.550232	-5.15747e-06
438.122	0.550171	-7.23267e-06
442.502	0.55014	-1.31226e-06
446.822	0.550201	-5.5542e-06
451.162	-0.698273	-0.00613434
455.522	0.550171	-1.2207e-06
459.842	0.550171	-5.92041e-06
464.182	-0.698242	-0.00413696
468.542	0.550171	-1.64795e-06
472.862	0.550171	-6.56128e-06
477.202	-0.698303	-0.00350464
481.562	0.550171	-1.95313e-06
485.882	0.550171	-5.40161e-06
490.222	-0.698334	-0.00322693
494.582	0.550171	-3.11279e-06
498.902	0.550232	-4.97437e-06
503.262	0.00124207	0.00424561
507.602	0.55014	-3.41797e-06
511.922	0.550171	-6.83594e-06
516.282	0.00115967	0.000438934
520.622	0.55014	-3.35693e-06
524.942	0.550201	-6.31714e-06
529.302	0.00110168	0.000121643
533.642	0.55014	-3.78418e-06
537.962	0.550201	-6.71387e-06
542.322	0.00108948	5.08423e-05
546.662	0.550201	-3.54004e-06
550.982	0.550171	-5.76782e-06
555.362	0.550232	9.07593e-05
559.682	0.550201	-3.9978e-06
564.002	0.55011	-7.01904e-06
568.382	0.55014	4.01306e-05
572.702	0.55014	-5.34058e-06
577.022	0.550201	-6.5918e-06
581.402	0.550171	2.37122e-05
585.722	0.550171	-4.45557e-06
590.042	0.55014	-7.1106e-06
594.422	0.550171	1.67236e-05
598.742	0.55014	-5.12695e-06
603.062	0.550201	-7.17163e-06
607.442	0.550171	1.09863e-05
611.762	0.550232	-4.66919e-06
616.082	0.55011	-5.88989e-06
620.462	0.55014	6.74438e-06
624.782	0.550171	-5.31006e-06
629.102	0.550201	-6.31714e-06
633.482	0.550171	4.85229e-06
637.802	0.55014	-5.0354e-06
642.122	0.550201	-7.1106e-06
646.502	0.550171	4.24194e-06
650.822	0.55014	-6.01196e-06
655.142	0.550171	-6.62231e-06
659.522	0.550232	3.26538e-06
663.842	0.550171	-5.34058e-06
668.162	0.55014	-7.78198e-06
672.542	0.55011	1.58691e-06
676.862	0.550171	-4.82178e-06
681.182	0.55011	-8.08716e-06
685.562	0.55014	9.15527e-08
689.882	0.550201	-5.70679e-06
694.202	0.550171	-6.5918e-06
698.582	0.55069	-7.8125e-06
702.902	0.549194	7.62939e-07
707.222	0.550415	-6.68335e-06
711.602	0.550323	-1.15967e-06
715.922	0.55011	-9.00269e-06
720.262	-0.699127	-0.00794067
724.622	0.551086	-8.57544e-06
728.942	0.551086	-1.31531e-05
733.282	-0.699158	-0.00513184
737.642	0.55014	-3.50952e-06
741.962	0.551117	-1.33362e-05
746.302	-0.699005	-0.00416656
750.662	0.550964	-7.50732e-06
754.982	0.549896	-2.89917e-06
759.322	-0.699005	-0.00374481
763.682	0.550415	-5.92041e-06
768.002	0.549255	8.8501e-07
772.362	0.00161438	0.00693787
776.702	0.549194	1.83105e-06
781.022	0.549255	6.71387e-07
785.382	0.00209656	0.00130341
789.722	0.55014	-7.32422e-07
794.042	0.550568	-9.49097e-06
798.403	0.00201721	0.000247009
802.743	0.549194	2.83813e-06
807.063	0.549927	-6.7749e-06
811.423	0.000857544	7.87964e-05
815.763	0.550964	-1.02539e-05
820.083	0.550446	-8.42285e-06
824.463	0.551056	9.0271e-05
828.783	0.550415	-4.3335e-06
833.103	0.549164	6.40869e-07
837.483	0.549316	4.76074e-05
841.803	0.551086	-1.18103e-05
846.123	0.550964	-1.18103e-05
850.503	0.551025	1.72119e-05
854.823	0.549225	6.10352e-07
859.143	0.549927	-5.52368e-06
863.523	0.549683	2.17896e-05
867.843	0.549866	-1.77002e-06
872.163	0.55069	-1.09863e-05
876.543	0.550171	8.11768e-06
880.863	0.551056	-1.31531e-05
885.183	0.550812	-1.17798e-05
889.563	0.549316	1.11389e-05
893.883	0.550262	-6.80542e-06
898.203	0.550049	-4.57764e-06
902.583	0.549255	9.91821e-06
906.903	0.549133	1.37329e-06
911.223	0.549103	-1.83105e-07
915.603	0.55069	-3.75366e-06
919.923	0.549255	3.35693e-07
924.243	0.549194	2.13623e-07
928.623	0.549469	5.7373e-06
932.943	0.550873	-1.24817e-05
937.263	0.549316	-1.80054e-06
941.643	0.549438	5.43213e-06
945.963	0.55014	-4.94385e-06
950.283	0.550751	-1.29395e-05
954.663	0.549896	4.97437e-06
958.983	0.550995	-1.23901e-05
963.303	0.549469	-4.27246e-06
967.683	0.549194	5.24902e-06
972.003	0.549042	7.62939e-07
976.323	0.550903	-1.16577e-05
980.703	0.550659	-5.15747e-06
985.023	0.551086	-1.25732e-05
989.363	-0.697113	-0.00993652
993.723	0.550293	-5.79834e-06
998.043	0.549622	-1.28174e-06
1002.38	-0.698303	-0.00631256
1006.74	0.550293	-3.72314e-06
1011.06	0.549194	-1.00708e-06
1015.4	-0.698212	-0.00497253
1019.76	0.550507	-6.5918e-06
1024.08	0.551086	-1.4801e-05
1028.42	-0.698517	-0.00434265
1032.78	0.550446	-6.5918e-06
1037.1	0.550415	-6.74438e-06
1041.46	0.00183105	0.00874939
1045.8	0.549286	1.58691e-06
1050.12	0.550812	-1.18408e-05
1054.48	0.00185852	0.00303955
1058.82	0.550873	-1.12915e-05
1063.14	0.551025	-1.37329e-05
1067.5	0.00128174	0.000686646
1071.84	0.550201	-6.7749e-06
1076.16	0.549347	-1.2207e-06
1080.52	0.00090332	0.000174133
1084.86	0.55127	-1.474e-05
1089.18	0.550385	-7.78198e-06
1093.56	0.549377	0.000110687
1097.88	0.550659	-8.02612e-06
1102.2	0.54953	-2.38037e-06
1106.58	0.551056	3.29895e-05
1110.9	0.551117	-1.37329e-05
1115.22	0.55072	-1.25122e-05
1119.6	0.549377	2.38037e-05
1123.92	0.551086	-1.27869e-05
1128.24	0.550842	-1.13525e-05
1132.62	0.550293	1.07422e-05
1136.94	0.550629	-9.49097e-06
1141.26	0.551086	-1.40076e-05
1145.64	0.549225	1.5564e-05
1149.96	0.549744	-4.79126e-06
1154.28	0.550812	-1.651e-05
1158.66	0.551117	-1.52588e-06
1162.98	0.550476	-1.15662e-05
1167.3	0.551086	-1.44958e-05
1171.68	0.549316	8.54492e-06
1176	0.550842	-6.86646e-06
1180.32	0.551086	-1.4679e-05
1184.7	0.550293	-3.08228e-06
1189.02	0.550903	-1.24817e-05
1193.34	0.549744	-4.39453e-06
1197.72	0.551147	-5.52368e-06
1202.04	0.550323	-1.10168e-05
1206.36	0.550781	-1.41602e-05
1210.74	0.549622	2.83813e-06
1215.06	0.549835	-5.31006e-06
1219.38	0.550873	-1.31531e-05
1223.76	0.550751	-5.58472e-06
1228.08	0.549744	-1.06812e-06
1232.4	0.550903	-1.24207e-05
1236.78	0.550842	-8.36182e-06
1241.1	0.550629	-1.32446e-05
1245.42	0.550629	-8.36182e-06
1249.8	0.550537	-5.70679e-06
1254.12	0.549133	5.49316e-07
1258.46	-0.697937	-0.0122803
1262.82	0.550079	-2.80762e-06
1267.14	0.551208	-1.19019e-05
1271.48	-0.697754	-0.00780334
1275.84	0.550964	-9.8877e-06
1280.16	0.551025	-1.34277e-05
1284.5	-0.699005	-0.00603882
1288.86	0.549866	-2.80762e-06
1293.18	0.55072	-1.39771e-05
1297.52	-0.697388	-0.00514771
1301.88	0.549805	-3.44849e-06
1306.2	0.549896	-1.5564e-06
1310.56	0.00135498	0.0102051
1314.9	0.549927	-3.69263e-06
1319.22	0.549347	2.74658e-07
1323.58	0.00128784	0.00501862
1327.92	0.551208	-1.40991e-05
1332.24	0.549683	-2.68555e-06
1336.6	0.000714111	0.00181
1340.94	0.549255	-1.52588e-07
1345.26	0.549255	-9.76562e-07
1349.62	0.000744629	0.00054657
1353.96	0.550262	-7.23267e-06
1358.28	0.549988	-7.8125e-06
1362.66	0.549225	0.000152039
1366.98	0.550903	-1.41907e-05
1371.3	0.551208	-1.67542e-05
1375.68	0.550903	4.12903e-05
1380	0.550934	-1.12305e-05
1384.32	0.550354	-9.30786e-06
1388.7	0.550659	2.18506e-05
1393.02	0.551178	-1.49231e-05
1397.34	0.550873	-1.40686e-05
1401.72	0.549683	1.76697e-05
1406.04	0.550659	-1.09863e-05
1410.36	0.550079	-8.17871e-06
1414.74	0.549896	9.24683e-06
1419.06	0.549347	-1.15967e-06
1423.38	0.549805	-5.15747e-06
1427.76	0.550201	4.97437e-06
1432.08	0.551025	-1.34888e-05
1436.4	0.549744	-2.44141e-06
1440.78	0.54953	7.14111e-06
1445.1	0.550842	-1.28784e-05
1449.42	0.549622	-2.96021e-06
1453.8	0.550354	-1.52588e-06
1458.12	0.551086	-1.34277e-05
1462.44	0.550385	-1.31836e-05
1466.82	0.549286	5.18799e-06
1471.14	0.550873	-1.28479e-05
1475.46	0.549896	-6.46973e-06
1479.84	0.550476	-4.60815e-06
1482.02	0.550537	-1.08643e-05