File: Edgar/20240517/20240517/electrodeposition_pulsed_potential_20240517_A/pulses_1000_to_2000.txt
Time (s)	WE(1).Potential (V)	WE(1).Current (A)
1505.5	-0.698517	-0.0145386
1509.86	0.549377	1.95313e-06
1514.18	0.550873	-1.32446e-05
1518.52	-0.697845	-0.0092804
1522.88	0.550659	-8.39233e-06
1527.2	0.549164	-3.23486e-06
1531.54	-0.698944	-0.00711456
1535.9	0.550568	-8.5144e-06
1540.22	0.550751	-1.28479e-05
1544.56	-0.698914	-0.00597534
1548.92	0.550385	-6.95801e-06
1553.24	0.550934	-1.37024e-05
1557.6	0.000830078	0.0108734
1561.94	0.549774	-3.54004e-06
1566.26	0.549286	-8.54492e-07
1570.62	0.000238037	0.00612427
1574.96	0.549866	-6.5918e-06
1579.28	0.550934	-1.50452e-05
1583.64	0.00154724	0.00304565
1587.98	0.55069	-1.13831e-05
1592.3	0.549774	-5.12695e-06
1596.66	0.00171509	0.00118713
1601	0.549805	-3.9978e-06
1605.32	0.549255	-3.66211e-07
1609.7	0.549408	0.000227692
1614.02	0.549988	-4.36401e-06
1618.34	0.549835	-6.073e-06
1622.72	0.549316	7.08923e-05
1627.04	0.550842	-1.06201e-05
1631.36	0.549622	-4.88281e-06
1635.74	0.549927	3.28064e-05
1640.06	0.550537	-1.02234e-05
1644.38	0.549255	5.79834e-07
1648.76	0.551056	1.26953e-05
1653.08	0.550079	-5.88989e-06
1657.4	0.550934	-1.80664e-05
1661.78	0.551056	4.30298e-06
1666.1	0.549805	-1.52588e-06
1670.42	0.550171	-8.14819e-06
1674.8	0.550598	3.14331e-06
1679.12	0.549316	-1.7395e-06
1683.44	0.550873	-1.23291e-05
1687.82	0.550354	9.15527e-07
1692.14	0.550964	-1.34277e-05
1696.46	0.550629	-8.69751e-06
1700.84	0.550201	5.18799e-06
1705.16	0.549225	-1.2207e-06
1709.48	0.549744	-4.5166e-06
1713.86	0.550873	-4.73022e-06
1718.18	0.549591	-4.3335e-06
1722.5	0.549713	-2.22778e-06
1726.88	0.550232	-2.19727e-06
1731.2	0.551117	-1.44958e-05
1735.52	0.549438	-2.83813e-06
1739.9	0.550201	9.76562e-07
1744.22	0.549652	-3.50952e-06
1748.54	0.549286	-1.52588e-06
1752.92	0.551117	-1.09253e-05
1757.24	0.549866	-2.19727e-06
1761.56	0.549377	-4.3335e-06
1765.94	0.549377	2.22778e-06
1770.26	0.549652	-2.89917e-06
1774.6	-0.697693	-0.0161255
1778.96	0.551086	-1.13831e-05
1783.28	0.54953	-3.90625e-06
1787.62	-0.698425	-0.0110687
1791.98	0.550018	6.10352e-08
1796.3	0.551056	-1.36719e-05
1800.64	-0.698608	-0.00846252
1805	0.549561	-9.46045e-07
1809.32	0.550171	-1.19934e-05
1813.66	-0.697235	-0.0070343
1818.02	0.551178	-1.06506e-05
1822.34	0.55069	-1.15967e-05
1826.7	0.000564575	0.0113556
1831.04	0.551147	-1.11389e-05
1835.36	0.549347	-2.44141e-06
1839.72	0.00202026	0.0070816
1844.06	0.551117	-1.04065e-05
1848.38	0.550995	-1.55334e-05
1852.74	0.000308228	0.00437408
1857.08	0.549866	-1.40381e-06
1861.4	0.551025	-1.39465e-05
1865.76	0.0019165	0.00228516
1870.1	0.550751	-1.16272e-05
1874.42	0.55011	-7.87354e-06
1878.8	0.55011	0.000585022
1883.12	0.550629	-1.0437e-05
1887.44	0.549194	-3.05176e-08
1891.82	0.550568	0.000104889
1896.14	0.54953	-1.31226e-06
1900.46	0.550537	-9.52148e-06
1904.84	0.549225	5.83191e-05
1909.16	0.549408	-1.19019e-06
1913.48	0.549957	-6.95801e-06
1917.86	0.550171	2.78625e-05
1922.18	0.549072	-1.19019e-06
1926.5	0.550812	-1.19934e-05
1930.88	0.550964	1.297e-05
1935.2	0.549988	-6.28662e-06
1939.52	0.550964	-1.6449e-05
1943.9	0.550903	7.56836e-06
1948.22	0.551208	-1.47095e-05
1952.54	0.549561	-4.3335e-06
1956.92	0.549316	1.34277e-05
1961.24	0.550232	-6.073e-06
1965.56	0.549469	-3.57056e-06
1969.94	0.549408	9.46045e-06
1974.26	0.550049	-7.20215e-06
1978.58	0.550781	-1.37024e-05
1982.96	0.549225	1.0376e-05
1987.28	0.550903	-1.0376e-05
1991.6	0.551147	-1.60828e-05
1995.98	0.551147	-5.52368e-06
2000.3	0.549927	-4.48608e-06
2004.62	0.550842	-1.15356e-05
2009	0.549469	3.479e-06
2013.32	0.549957	-8.3313e-06
2017.64	0.549438	-3.90625e-06
2022.02	0.550903	-8.54492e-06
2026.34	0.549225	-1.25122e-06
2030.66	0.549194	-7.32422e-07
2035.04	0.551056	-9.06372e-06
2039.36	0.550537	-9.30786e-06
2043.7	-0.697906	-0.0174133
2048.06	0.549469	-2.19727e-06
2052.38	0.549316	-1.64795e-06
2056.72	-0.697174	-0.012439
2061.08	0.550201	-4.3335e-06
2065.4	0.550507	-1.10779e-05
2069.74	-0.698303	-0.00951233
2074.1	0.551239	-1.15967e-05
2078.42	0.55014	-7.62939e-06
2082.76	-0.69809	-0.0078064
2087.12	0.550354	-5.31006e-06
2091.44	0.550812	-1.0376e-05
2095.8	0.000119019	0.0115631
2100.14	0.549225	1.52588e-07
2104.46	0.550415	-1.02539e-05
2108.82	0.00149841	0.00768127
2113.16	0.549103	2.99072e-06
2117.48	0.550995	-1.35498e-05
2121.84	0.00126038	0.00512421
2126.18	0.55069	-1.01013e-05
2130.5	0.549347	-5.49316e-07
2134.86	0.000531006	0.00310303
2139.2	0.550598	-7.41577e-06
2143.52	0.550751	-1.24512e-05
2147.9	0.549957	0.00186523
2152.22	0.550598	-7.96509e-06
2156.54	0.549591	-4.11987e-06
2160.92	0.549652	0.000167145
2165.24	0.550995	-1.26648e-05
2169.56	0.549316	-1.46484e-06
2173.94	0.550964	6.49719e-05
2178.26	0.550476	-6.98853e-06
2182.58	0.551056	-1.35803e-05
2186.96	0.550049	4.04663e-05
2191.28	0.549408	-1.86157e-06
2195.6	0.549347	-3.66211e-07
2199.98	0.550873	1.9928e-05
2204.3	0.551086	-1.34583e-05
2208.62	0.551056	-1.40076e-05
2213	0.550751	1.02539e-05
2217.32	0.549561	-3.72314e-06
2221.64	0.551178	-1.66931e-05
2226.02	0.549561	1.77002e-05
2230.34	0.549286	-4.27246e-07
2234.66	0.55069	-1.15967e-05
2239.04	0.550995	1.64795e-06
2243.36	0.549347	-1.67847e-06
2247.68	0.551056	-1.474e-05
2252.06	0.55072	3.96729e-07
2256.38	0.549438	-9.46045e-07
2260.7	0.549805	-5.46265e-06
2265.08	0.550812	-1.15967e-06
2269.4	0.550903	-1.26038e-05
2273.72	0.549561	-3.60107e-06
2278.1	0.549561	5.92041e-06
2282.42	0.550415	-9.8877e-06
2286.74	0.549774	-5.31006e-06
2291.12	0.550842	-6.2561e-06
2295.44	0.549347	-9.76562e-07
2299.76	0.549561	-2.96021e-06
2304.14	0.5495	1.95313e-06
2308.46	0.550659	-1.02844e-05
2312.8	-0.697662	-0.0183533
2317.16	0.550385	-4.24194e-06
2321.48	0.549713	-3.72314e-06
2325.82	-0.698517	-0.0134705
2330.18	0.549377	2.28882e-06
2334.5	0.549164	-3.90625e-06
2338.84	-0.697723	-0.0104034
2343.2	0.549316	3.08228e-06
2347.52	0.549255	-6.71387e-07
2351.86	-0.698853	-0.0085083
2356.22	0.549591	2.16675e-06
2360.54	0.550262	-8.60596e-06
2364.9	0.000924683	0.0115479
2369.24	0.551147	-1.03149e-05
2373.56	0.550018	-7.59888e-06
2377.92	0.000854492	0.00795288
2382.26	0.550964	-1.14136e-05
2386.58	0.549438	-2.47192e-06
2390.94	0.000518799	0.00554718
2395.28	0.550537	-6.95801e-06
2399.6	0.549469	-2.31934e-06
2403.96	0.000396729	0.00365417
2408.3	0.549347	1.00708e-06
2412.62	0.549652	-5.85937e-06
2417	0.550354	0.00857849
2421.32	0.550415	-7.62939e-06
2425.64	0.550507	-1.3092e-05
2430.02	0.549194	0.000240479
2434.34	0.5495	-1.46484e-06
2438.66	0.550964	-1.30005e-05
2443.04	0.549255	9.76868e-05
2447.36	0.549316	-2.44141e-07
2451.68	0.549469	-1.0376e-06
2456.06	0.549744	4.87976e-05
2460.38	0.549713	-2.96021e-06
2464.7	0.549438	-1.15967e-06
2469.08	0.549286	3.52478e-05
2473.4	0.551086	-1.04675e-05
2477.72	0.549408	-3.66211e-06
2482.1	0.551025	1.17493e-05
2486.42	0.5495	-4.85229e-06
2490.74	0.549408	-2.99072e-06
2495.12	0.549683	1.44043e-05
2499.44	0.549377	1.0376e-06
2503.76	0.551086	-1.45874e-05
2508.14	0.55072	4.02832e-06
2512.46	0.5495	-2.53296e-06
2516.78	0.550537	-1.26038e-05
2521.16	0.549988	7.62939e-06
2525.48	0.550903	-1.19629e-05
2529.8	0.549347	-2.68555e-06
2534.18	0.550323	2.38037e-06
2538.5	0.551056	-1.25732e-05
2542.82	0.54953	-4.02832e-06
2547.2	0.551056	-4.88281e-06
2551.52	0.549316	-3.05176e-07
2555.84	0.550964	-1.474e-05
2560.22	0.549286	7.47681e-06
2564.54	0.550415	-1.0437e-05
2568.86	0.549988	-7.20215e-06
2573.24	0.549408	3.32642e-06
2577.56	0.549377	-6.10352e-07
2581.9	-0.697815	-0.0191772
2586.26	0.549377	3.20435e-06
2590.58	0.549286	9.15527e-08
2594.92	-0.698639	-0.0143555
2599.28	0.551056	-8.81958e-06
2603.6	0.549408	-3.05176e-08
2607.94	-0.697083	-0.0111877
2612.3	0.549622	1.2207e-07
2616.62	0.550842	-1.19019e-05
2620.96	-0.697998	-0.00915833
2625.32	0.549469	1.43433e-06
2629.64	0.550873	-1.29089e-05
2634	-1.83105e-05	0.0114563
2638.34	0.549622	-1.83105e-07
2642.66	0.549377	-1.19019e-06
2647.02	0.00166321	0.00807495
2651.36	0.549713	-2.19727e-06
2655.68	0.55011	-6.46973e-06
2660.04	0.000244141	0.00578857
2664.38	0.550934	-1.0376e-05
2668.7	0.550232	-1.1322e-05
2673.06	0.00128174	0.00398254
2677.4	0.549408	1.28174e-06
2681.72	0.550873	-1.31226e-05
2686.1	0.549164	0.0109558
2690.42	0.550659	-6.37817e-06
2694.74	0.550842	-1.22681e-05
2699.12	0.551025	0.000343048
2703.44	0.549835	-3.32642e-06
2707.76	0.549591	-4.5166e-06
2712.14	0.549622	0.000111786
2716.46	0.550323	-6.7749e-06
2720.78	0.551117	-1.52283e-05
2725.16	0.549164	6.2561e-05
2729.48	0.551086	-1.09863e-05
2733.8	0.550903	-1.36414e-05
2738.18	0.551025	2.70691e-05
2742.5	0.550629	-8.94165e-06
2746.82	0.549774	-2.10571e-06
2751.2	0.550934	1.34888e-05
2755.52	0.549347	-4.57764e-07
2759.84	0.549255	-2.62451e-06
2764.22	0.550507	1.15662e-05
2768.54	0.551086	-1.26343e-05
2772.86	0.55072	-1.09253e-05
2777.24	0.551056	3.87573e-06
2781.56	0.550262	-1.0376e-05
2785.88	0.550812	-1.00708e-05
2790.26	0.549774	1.0498e-05
2794.58	0.549988	-4.18091e-06
2798.9	0.549683	-2.80762e-06
2803.28	0.550568	-3.05176e-08
2805.46	0.55011	-4.69971e-06