File: Edgar/20240517/20240517/electrodeposition_pulsed_potential_20240517_A/pulses_2000_to_3000.txt
Time (s)	WE(1).Potential (V)	WE(1).Current (A)
2828.74	-0.697632	-0.0199249
2833.1	0.550079	-1.43433e-06
2837.42	0.549774	-5.12695e-06
2841.76	-0.697662	-0.0150543
2846.12	0.550293	-4.94385e-06
2850.44	0.549438	-2.31934e-06
2854.78	-0.698639	-0.0118439
2859.14	0.550385	-5.61523e-06
2863.46	0.550568	-9.70459e-06
2867.8	-0.698425	-0.00974426
2872.16	0.551117	-1.00708e-05
2876.48	0.549805	-4.97437e-06
2880.84	6.71387e-05	0.0112152
2885.18	0.549835	-2.56348e-06
2889.5	0.550323	-8.63647e-06
2893.86	0.00132751	0.00802307
2898.2	0.550507	-3.8147e-06
2902.52	0.549408	-5.5542e-06
2906.88	0.000823975	0.00585205
2911.22	0.549316	-2.10571e-06
2915.54	0.550842	-1.22681e-05
2919.9	0.00173035	0.00412689
2924.24	0.551086	-1.20544e-05
2928.56	0.550201	-9.73511e-06
2932.94	0.550507	0.0121765
2937.26	0.549896	-4.21143e-06
2941.58	0.550781	-1.30615e-05
2945.96	0.549347	0.000576782
2950.28	0.549622	-3.66211e-07
2954.6	0.549133	1.52588e-07
2958.98	0.549988	0.000132477
2963.3	0.550476	-6.89697e-06
2967.62	0.549866	-4.94385e-06
2972	0.549774	6.56738e-05
2976.32	0.550781	-1.11389e-05
2980.64	0.550537	-1.12e-05
2985.02	0.55069	3.27759e-05
2989.34	0.549896	-4.05884e-06
2993.66	0.549835	-5.67627e-06
2998.04	0.549713	2.6001e-05
3002.36	0.549622	-4.5166e-06
3006.68	0.550934	-1.3855e-05
3011.06	0.549683	1.69373e-05
3015.38	0.550598	-8.88062e-06
3019.7	0.550232	-5.88989e-06
3024.08	0.550629	8.30078e-06
3028.4	0.549561	-1.95313e-06
3032.72	0.551147	-1.50146e-05
3037.1	0.549286	1.21765e-05
3041.42	0.551147	-1.34888e-05
3045.74	0.549225	-4.27246e-07
3050.12	0.549316	1.17798e-05
3054.44	0.551056	-1.28174e-05
3058.76	0.551056	-1.55945e-05
3063.14	0.549286	9.15527e-06
3067.46	0.549377	-1.37329e-06
3071.78	0.549072	-1.70898e-06
3076.16	0.549225	7.78198e-06
3080.48	0.549591	-2.68555e-06
3084.8	0.549286	-1.5564e-06
3089.18	0.549988	2.44141e-07
3093.5	0.549652	-4.5166e-06
3097.84	-0.698242	-0.0205811
3102.2	0.549255	3.84521e-06
3106.52	0.549286	6.40869e-07
3110.86	-0.698242	-0.0158875
3115.22	0.549988	-3.32642e-06
3119.54	0.550446	-7.14111e-06
3123.88	-0.698669	-0.0127289
3128.24	0.549835	-1.80054e-06
3132.56	0.549561	-3.05176e-06
3136.9	-0.698425	-0.0105164
3141.26	0.550964	-1.00098e-05
3145.58	0.551056	-1.34277e-05
3149.94	0.0012146	0.0109253
3154.28	0.549316	1.80054e-06
3158.6	0.550323	-1.23291e-05
3162.96	-0.000100708	0.00801086
3167.3	0.549561	-3.05176e-08
3171.62	0.549866	-6.53076e-06
3175.98	0.000213623	0.00596893
3180.32	0.549774	-2.44141e-06
3184.64	0.550903	-1.3031e-05
3189	0.00144043	0.00434113
3193.34	0.549377	-2.74658e-07
3197.66	0.55069	-1.28784e-05
3202.04	0.550476	0.0134949
3206.36	0.550171	-5.70679e-06
3210.68	0.550995	-1.38245e-05
3215.06	0.551331	0.00137848
3219.38	0.550293	-6.40869e-06
3223.7	0.550568	-1.22375e-05
3228.08	0.550415	0.000220734
3232.4	0.549652	-1.0376e-06
3236.72	0.54953	-5.27954e-06
3241.1	0.549713	8.34961e-05
3245.42	0.550964	-1.12915e-05
3249.74	0.551056	-1.44958e-05
3254.12	0.550446	3.86963e-05
3258.44	0.550568	-8.94165e-06
3262.76	0.550385	-9.0332e-06
3267.14	0.549377	3.07617e-05
3271.46	0.549622	-1.09863e-06
3275.78	0.549225	-1.83105e-06
3280.16	0.550964	9.0332e-06
3284.48	0.551056	-1.23291e-05
3288.8	0.549683	-6.65283e-06
3293.18	0.550415	8.45337e-06
3297.5	0.550934	-1.33972e-05
3301.82	0.549408	-2.13623e-06
3306.2	0.549988	6.53076e-06
3310.52	0.549408	-1.64795e-06
3314.84	0.550629	-1.2146e-05
3319.22	0.550507	1.70898e-06
3323.54	0.549835	-1.52588e-06
3327.86	0.549896	-5.52368e-06
3332.24	0.549622	5.18799e-06
3336.56	0.549255	-1.61743e-06
3340.88	0.55011	-5.46265e-06
3345.26	0.551025	-6.16455e-06
3349.58	0.549133	-1.31226e-06
3353.9	0.550018	-8.08716e-06
3358.28	0.549561	3.93677e-06
3362.6	0.551025	-1.27869e-05
3366.94	-0.697479	-0.0212585
3371.3	0.550537	-3.50952e-06
3375.62	0.549255	6.10352e-08
3379.96	-0.697418	-0.0166443
3384.32	0.550323	-3.50952e-06
3388.64	0.5495	-6.04248e-06
3392.98	-0.698059	-0.0135498
3397.34	0.551117	-1.04065e-05
3401.66	0.550354	-9.09424e-06
3406	-0.696991	-0.0112915
3410.36	0.551056	-9.61304e-06
3414.68	0.551056	-1.40076e-05
3419.04	0.000964355	0.0105286
3423.38	0.550568	-5.34058e-06
3427.7	0.549255	-9.76562e-07
3432.06	7.62939e-05	0.00786743
3436.4	0.549286	1.0376e-06
3440.72	0.55014	-8.02612e-06
3445.08	0.000814819	0.00594696
3449.42	0.551117	-1.14746e-05
3453.74	0.549896	-6.43921e-06
3458.1	0.000518799	0.00442657
3462.44	0.549774	6.10352e-07
3466.76	0.550751	-1.18103e-05
3471.14	0.549713	0.0143951
3475.46	0.550079	-6.22559e-06
3479.78	0.551086	-1.36414e-05
3484.16	0.549927	0.00540527
3488.48	0.550018	-1.15967e-06
3492.8	0.549652	-3.66211e-06
3497.18	0.549591	0.000432739
3501.5	0.549866	-2.2583e-06
3505.82	0.549347	-5.49316e-07
3510.2	0.549164	0.000147491
3514.52	0.550995	-1.26343e-05
3518.84	0.550964	-1.21155e-05
3523.22	0.550079	5.93567e-05
3527.54	0.550903	-1.35498e-05
3531.86	0.549316	-9.76562e-07
3536.24	0.550964	2.5177e-05
3540.56	0.550507	-6.98853e-06
3544.88	0.549225	-1.80054e-06
3549.26	0.549896	2.07214e-05
3553.58	0.551025	-1.297e-05
3557.9	0.549988	-6.56128e-06
3562.28	0.549835	1.3092e-05
3566.6	0.550812	-1.42822e-05
3570.92	0.5495	-5.18799e-06
3575.3	0.549683	1.15051e-05
3579.62	0.549286	-2.44141e-07
3583.94	0.550446	-9.33838e-06
3588.32	0.550293	4.18091e-06
3592.64	0.550385	-9.24683e-06
3596.96	0.550049	-7.41577e-06
3601.34	0.549408	9.00269e-06
3605.66	0.549347	-8.23975e-07
3609.98	0.551056	-1.5625e-05
3614.36	0.549255	8.81958e-06
3618.68	0.549225	-2.01416e-06
3623	0.549835	-4.18091e-06
3627.38	0.550079	1.2207e-07
3631.7	0.55127	-1.5564e-05
3636.04	-0.696808	-0.0218842
3640.4	0.5495	3.63159e-06
3644.72	0.549469	-1.37329e-06
3649.06	-0.696899	-0.0173676
3653.42	0.550476	-2.38037e-06
3657.74	0.550079	-3.78418e-06
3662.08	-0.6987	-0.0143402
3666.44	0.55014	-3.05176e-06
3670.76	0.549652	-5.49316e-07
3675.1	-0.698578	-0.0120605
3679.46	0.550903	-8.45337e-06
3683.78	0.550659	-1.48315e-05
3688.14	0.00152588	0.0101288
3692.48	0.54953	3.20435e-06
3696.8	0.549438	-2.47192e-06
3701.16	0.000161743	0.00767822
3705.5	0.549774	-2.59399e-06
3709.82	0.551025	-1.41907e-05
3714.18	0.00167236	0.0059024
3718.52	0.549561	-1.09863e-06
3722.84	0.549866	-5.49316e-06
3727.2	0.000265503	0.00448364
3731.54	0.549255	4.27246e-07
3735.86	0.55072	-1.05591e-05
3740.24	0.550018	0.0151245
3744.56	0.549225	1.61743e-06
3748.88	0.550201	-6.7749e-06
3753.26	0.549042	0.00879822
3757.58	0.549286	1.0376e-06
3761.9	0.550018	-8.39233e-06
3766.28	0.551025	0.000782166
3770.6	0.549835	-7.75146e-06
3774.92	0.549957	-6.16455e-06
3779.3	0.551056	0.000248688
3783.62	0.549774	-6.40869e-06
3787.94	0.549286	-1.7395e-06
3792.32	0.550964	9.97925e-05
3796.64	0.550995	-1.39771e-05
3800.96	0.550018	-6.56128e-06
3805.34	0.550934	4.4281e-05
3809.66	0.549896	-5.61523e-06
3813.98	0.550201	-8.14819e-06
3818.36	0.550598	2.34375e-05
3822.68	0.549713	-4.76074e-06
3827	0.550079	-8.23975e-06
3831.38	0.549408	2.15149e-05
3835.7	0.550842	-1.35803e-05
3840.02	0.550537	-9.27734e-06
3844.4	0.549225	1.64795e-05
3848.72	0.549408	-3.9978e-06
3853.04	0.549805	-7.08008e-06
3857.42	0.550751	1.28174e-06
3861.74	0.549286	-6.10352e-07
3866.06	0.55072	-1.08643e-05
3870.44	0.549255	1.16577e-05
3874.76	0.550385	-8.8501e-06
3879.08	0.549377	-4.69971e-06
3883.46	0.550751	-3.60107e-06
3887.78	0.550354	-8.63647e-06
3892.1	0.550232	-8.30078e-06
3896.48	0.549286	5.46265e-06
3900.8	0.550079	-6.65283e-06
3905.14	-0.696655	-0.0224335
3909.5	0.549194	5.0354e-06
3913.82	0.54953	-2.34985e-06
3918.16	-0.696594	-0.0180206
3922.52	0.550995	-8.42285e-06
3926.84	0.550751	-1.2085e-05
3931.18	-0.698181	-0.0150726
3935.54	0.549561	1.46484e-06
3939.86	0.550415	-8.66699e-06
3944.2	-0.697418	-0.012796
3948.56	0.549927	-7.93457e-07
3952.88	0.55014	-7.23267e-06
3957.24	0.00158997	0.0097168
3961.58	0.550781	-8.20923e-06
3965.9	0.550934	-1.2085e-05
3970.26	0.00123596	0.00747528
3974.6	0.549622	-1.52588e-07
3978.92	0.550995	-1.24207e-05
3983.28	0.00196533	0.00581329
3987.62	0.551086	-1.09558e-05
3991.94	0.549316	-5.18799e-07
3996.3	0.000268555	0.00447266
4000.64	0.549347	-1.2207e-07
4004.96	0.549347	-5.49316e-07
4009.34	0.550323	0.0157074
4013.66	0.551056	-9.09424e-06
4017.98	0.54953	-3.38745e-06
4022.36	0.549011	0.01026
4026.68	0.549408	2.74658e-07
4031	0.550873	-1.30005e-05
4035.38	0.550415	0.00131653
4039.7	0.549622	-4.63867e-06
4044.02	0.551147	-1.48926e-05
4048.4	0.550507	0.000422607
4052.72	0.549225	6.10352e-07
4057.04	0.550262	-8.3313e-06
4061.42	0.54953	0.00019162
4065.74	0.549957	-6.83594e-06
4070.06	0.55014	-8.05664e-06
4074.44	0.549683	9.2041e-05
4078.76	0.549469	-2.83813e-06
4083.08	0.549622	-4.08936e-06
4087.46	0.549591	5.10559e-05
4091.78	0.549835	-4.36401e-06
4096.1	0.550385	-9.765625E-06
4100.48	0.550079	2.5238e-05
4104.8	0.550232	-9.27734e-06
4109.12	0.551147	-1.58997e-05
4113.5	0.55072	1.09558e-05
4117.82	0.549774	-6.86646e-06
4122.14	0.549835	-7.56836e-06
4126.52	0.550781	4.97437e-06
4128.7	0.550751	-1.38245e-05