File: Edgar/20240517/20240517/electrodeposition_pulsed_potential_20240517_A/pulses_5000_to_6000.txt
Time (s)	WE(1).Potential (V)	WE(1).Current (A)
6799.47	-0.697754	-0.0248291
6803.83	0.550568	6.61926e-05
6808.15	0.549286	2.01416e-06
6812.49	-0.696655	-0.0214691
6816.85	0.55011	4.89197e-05
6821.17	0.549866	-5.12695e-06
6825.51	-0.69693	-0.0190613
6829.87	0.551178	3.16467e-05
6834.19	0.549316	-7.93457e-07
6838.53	-0.697632	-0.0171326
6842.89	0.55127	2.1637e-05
6847.21	0.550446	-8.11768e-06
6851.57	0.00169067	0.00635193
6855.91	0.550262	2.09656e-05
6860.23	0.551056	-1.35193e-05
6864.59	0.00149231	0.00512848
6868.93	0.549377	1.98975e-05
6873.25	0.550781	-1.04675e-05
6877.61	0.00130005	0.00416138
6881.95	0.550323	9.12476e-06
6886.27	0.550201	-7.2937e-06
6890.63	0.000958252	0.00336731
6894.97	0.549927	7.8125e-06
6899.29	0.549438	-4.57764e-07
6903.67	0.548584	0.0172821
6907.99	0.550842	-1.98364e-06
6912.31	0.550934	-1.32141e-05
6916.69	0.548798	0.014212
6921.01	0.550751	-3.35693e-06
6925.33	0.549408	-9.15527e-07
6929.71	0.548859	0.0112152
6934.03	0.55014	1.28174e-06
6938.35	0.549347	-2.74658e-07
6942.73	0.549805	0.00686096
6947.05	0.550995	-7.2937e-06
6951.37	0.550751	-1.0376e-05
6955.75	0.550262	0.00202332
6960.07	0.550903	-6.83594e-06
6964.39	0.549347	-1.34277e-06
6968.77	0.550598	0.00111694
6973.09	0.549255	3.41797e-06
6977.41	0.549316	-1.12915e-06
6981.79	0.550964	0.000709534
6986.11	0.550812	-6.83594e-06
6990.43	0.549835	-6.16455e-06
6994.81	0.55069	0.000484497
6999.13	0.551086	-1.09863e-05
7003.45	0.549988	-6.13403e-06
7007.83	0.549774	0.000350677
7012.15	0.550201	-4.48608e-06
7016.47	0.549927	-5.7373e-06
7020.85	0.551178	0.000245178
7025.17	0.549988	-3.57056e-06
7029.49	0.550476	-7.44629e-06
7033.87	0.549713	0.000185303
7038.19	0.551025	-1.12e-05
7042.51	0.550171	-3.479e-06
7046.89	0.549347	0.000145813
7051.21	0.549744	-4.27246e-06
7055.53	0.551086	-1.36108e-05
7059.91	0.550781	0.000101624
7064.23	0.549347	7.01904e-07
7068.57	-0.697845	-0.0248108
7072.93	0.550995	7.50732e-05
7077.25	0.551178	-1.24512e-05
7081.59	-0.696564	-0.0215576
7085.95	0.550812	5.56641e-05
7090.27	0.550812	-1.13831e-05
7094.61	-0.696472	-0.0191681
7098.97	0.550812	4.07715e-05
7103.29	0.549377	-1.7395e-06
7107.63	-0.698029	-0.0172729
7111.99	0.550201	3.17688e-05
7116.31	0.550262	-6.5918e-06
7120.67	0.000665283	0.00621216
7125.01	0.550476	2.3468e-05
7129.33	0.550323	-8.63647e-06
7133.69	0.00184631	0.00501404
7138.03	0.550659	1.54419e-05
7142.35	0.550903	-1.30615e-05
7146.71	0.00194397	0.00406494
7151.05	0.55069	8.08716e-06
7155.37	0.55014	-4.15039e-06
7159.73	0.00100403	0.00329803
7164.07	0.550293	8.39233e-06
7168.39	0.550842	-1.36719e-05
7172.77	0.550018	0.0173096
7177.09	0.550171	8.11768e-06
7181.41	0.549469	-2.83813e-06
7185.79	0.548676	0.0143097
7190.11	0.550049	2.41089e-06
7194.43	0.549591	-3.87573e-06
7198.81	0.550476	0.011377
7203.13	0.549316	7.32422e-06
7207.45	0.550629	-9.94873e-06
7211.83	0.549927	0.0073584
7216.15	0.550995	-5.85937e-06
7220.47	0.550659	-1.2207e-05
7224.85	0.55072	0.00221802
7229.17	0.551025	-6.43921e-06
7233.49	0.550964	-1.46179e-05
7237.87	0.549744	0.00121918
7242.19	0.550812	-5.79834e-06
7246.51	0.55011	-5.52368e-06
7250.89	0.550751	0.000776672
7255.21	0.550354	-4.15039e-06
7259.53	0.550964	-1.39771e-05
7263.91	0.550934	0.000532837
7268.23	0.550873	-8.97217e-06
7272.55	0.549561	-3.11279e-06
7276.93	0.550079	0.000387177
7281.25	0.549805	-2.38037e-06
7285.57	0.54953	-2.0752e-06
7289.95	0.550903	0.000276428
7294.27	0.549316	3.23486e-06
7298.59	0.550232	-9.49097e-06
7302.97	0.550201	0.000209808
7307.29	0.551056	-1.08337e-05
7311.61	0.549255	-1.2207e-06
7315.99	0.549408	0.000165222
7320.31	0.550842	-9.0332e-06
7324.63	0.54953	-4.42505e-06
7329.01	0.549377	0.000127716
7333.33	0.550781	-9.39941e-06
7337.67	-0.697052	-0.024939
7342.03	0.549622	9.51538e-05
7346.35	0.550964	-1.12305e-05
7350.69	-0.696411	-0.0217255
7355.05	0.549377	7.76062e-05
7359.37	0.550354	-4.24194e-06
7363.71	-0.696472	-0.0193756
7368.07	0.550964	4.89807e-05
7372.39	0.549866	-5.37109e-06
7376.73	-0.698181	-0.0174927
7381.09	0.54953	4.47388e-05
7385.41	0.549561	-1.83105e-06
7389.77	0.00164795	0.00600372
7394.11	0.55072	2.80457e-05
7398.43	0.550659	-9.42993e-06
7402.79	0.000567627	0.00485718
7407.13	0.551086	1.7334e-05
7411.45	0.551056	-1.25732e-05
7415.81	0.00039978	0.00394135
7420.15	0.550476	1.57471e-05
7424.47	0.550873	-1.02539e-05
7428.83	0.00121155	0.00318146
7433.17	0.550171	1.18103e-05
7437.49	0.549408	-1.28174e-06
7441.87	0.55011	0.0173065
7446.19	0.550873	2.83813e-06
7450.51	0.550598	-1.02844e-05
7454.89	0.549042	0.014386
7459.21	0.551025	-3.05176e-07
7463.53	0.549408	-1.46484e-06
7467.91	0.548828	0.0115479
7472.23	0.549469	8.30078e-06
7476.55	0.550903	-1.19019e-05
7480.93	0.549957	0.0078125
7485.25	0.549347	6.80542e-06
7489.57	0.550873	-1.18408e-05
7493.95	0.550842	0.00243958
7498.27	0.549377	5.06592e-06
7502.59	0.549805	-4.30298e-06
7506.97	0.549591	0.0013327
7511.29	0.549652	2.04468e-06
7515.61	0.549652	-2.31934e-06
7519.99	0.550446	0.000849304
7524.31	0.550598	-5.31006e-06
7528.63	0.550537	-8.78906e-06
7533.01	0.550751	0.000580444
7537.33	0.549957	-1.43433e-06
7541.65	0.549744	-1.89209e-06
7546.03	0.550537	0.00041745
7550.35	0.549591	6.10352e-08
7554.67	0.550446	-7.72095e-06
7559.05	0.550354	0.00031015
7563.37	0.550171	-3.57056e-06
7567.69	0.550232	-4.36401e-06
7572.07	0.549683	0.000237823
7576.39	0.550934	-9.552e-06
7580.71	0.54953	-2.68555e-06
7585.09	0.549469	0.000183716
7589.41	0.55011	-5.46265e-06
7593.73	0.549561	-4.21143e-06
7598.11	0.549347	0.000143005
7602.43	0.551178	-1.16882e-05
7606.77	-0.69754	-0.0249664
7611.13	0.55011	0.000103363
7615.45	0.550842	-1.08948e-05
7619.79	-0.697205	-0.0218079
7624.15	0.549805	8.37708e-05
7628.47	0.550995	-1.16272e-05
7632.81	-0.698059	-0.0194885
7637.17	0.549438	6.83289e-05
7641.49	0.550049	-4.79126e-06
7645.83	-0.696716	-0.0176453
7650.19	0.551025	4.29993e-05
7654.51	0.550873	-1.17798e-05
7658.87	0.00163879	0.00581116
7663.21	0.549835	3.92151e-05
7667.53	0.549744	-4.08936e-06
7671.89	0.000784302	0.00469208
7676.23	0.550995	2.38953e-05
7680.55	0.549408	-2.86865e-06
7684.91	0.000598145	0.00380463
7689.25	0.549377	2.75879e-05
7693.57	0.549377	-1.58691e-06
7697.93	0.00114746	0.00307861
7702.27	0.550781	1.22681e-05
7706.59	0.550995	-1.44653e-05
7710.97	0.548645	0.0172974
7715.29	0.551117	5.00488e-06
7719.61	0.550873	-1.15356e-05
7723.99	0.5495	0.0144287
7728.31	0.550812	4.5166e-06
7732.63	0.550995	-1.29089e-05
7737.01	0.549835	0.011673
7741.33	0.550781	3.05176e-07
7745.65	0.54953	-2.68555e-06
7750.03	0.550385	0.00816345
7754.35	0.549683	8.27026e-06
7758.67	0.551117	-1.37634e-05
7763.05	0.550842	0.00266846
7767.37	0.549774	5.18799e-06
7771.69	0.551086	-1.31226e-05
7776.07	0.550751	0.00142822
7780.39	0.549744	2.71606e-06
7784.71	0.549377	-2.83813e-06
7789.09	0.550751	0.000914612
7793.41	0.551025	-5.5542e-06
7797.73	0.550201	-1.07727e-05
7802.11	0.549622	0.000640259
7806.43	0.550812	-7.78198e-06
7810.75	0.550232	-7.56836e-06
7815.13	0.549377	0.000460724
7819.45	0.550598	-5.76782e-06
7823.77	0.550964	-1.35498e-05
7828.15	0.549561	0.000344299
7832.47	0.550812	-8.39233e-06
7836.79	0.550568	-1.02539e-05
7841.17	0.550873	0.000252075
7845.49	0.549438	2.41089e-06
7849.81	0.549408	-2.04468e-06
7854.19	0.550751	0.000193726
7858.51	0.550812	-6.95801e-06
7862.83	0.549347	-1.58691e-06
7867.21	0.55011	0.000153076
7871.53	0.549347	3.05176e-07
7875.87	-0.697632	-0.024939
7880.23	0.550934	0.00011261
7884.55	0.549561	6.10352e-08
7888.89	-0.697571	-0.0218658
7893.25	0.55011	9.10034e-05
7897.57	0.550598	-8.91113e-06
7901.91	-0.697968	-0.0195892
7906.27	0.549622	7.67212e-05
7910.59	0.549561	-1.67847e-06
7914.93	-0.697998	-0.0176025
7919.29	0.550415	5.26733e-05
7923.61	0.549988	-2.0752e-06
7927.97	0.000360107	0.00580566
7932.31	0.549469	4.60205e-05
7936.63	0.550781	-9.97925e-06
7940.99	0.000982666	0.00466949
7945.33	0.550659	2.8595e-05
7949.65	0.550201	-5.52368e-06
7954.01	0.00162964	0.00378815
7958.35	0.550659	2.31323e-05
7962.67	0.549896	-4.02832e-06
7967.03	0.00107727	0.00308105
7971.37	0.55072	1.55334e-05
7975.69	0.550629	-9.73511e-06
7980.07	0.549896	0.0173462
7984.39	0.550903	8.5144e-06
7988.71	0.549896	-6.92749e-06
7993.09	0.549744	0.0144928
7997.41	0.550812	6.68335e-06
8001.73	0.549927	-3.9978e-06
8006.11	0.549927	0.0116943
8010.43	0.550995	2.44141e-07
8014.75	0.55011	-4.94385e-06
8019.13	0.549744	0.0078949
8023.45	0.549561	9.64355e-06
8027.77	0.550201	-6.95801e-06
8032.15	0.550507	0.00256226
8036.47	0.549866	5.43213e-06
8040.79	0.550812	-1.05286e-05
8045.17	0.550293	0.0014267
8049.49	0.550873	-4.24194e-06
8053.81	0.551086	-1.07727e-05
8058.19	0.550995	0.000922852
8062.51	0.549561	4.18091e-06
8066.83	0.550018	-5.46265e-06
8071.21	0.54953	0.000655212
8075.53	0.550995	-7.96509e-06
8079.85	0.550903	-1.15662e-05
8084.23	0.550598	0.000467438
8088.55	0.549591	2.22778e-06
8092.87	0.550812	-1.15662e-05
8097.25	0.551056	0.000348419
8099.43	0.549316	-5.18799e-07