File: Edgar/20240517/20240517/electrodeposition_pulsed_potential_20240517_A/pulses_3000_to_4000.txt
Time (s)	WE(1).Potential (V)	WE(1).Current (A)
4152.05	-0.696289	-0.0229156
4156.41	0.551056	-5.31006e-06
4160.73	0.549835	-4.45557e-06
4165.07	-0.697784	-0.0185303
4169.43	0.549286	3.32642e-06
4173.75	0.550323	-6.19507e-06
4178.09	-0.696747	-0.0156586
4182.45	0.550629	-5.06592e-06
4186.77	0.550842	-1.46484e-05
4191.11	-0.698517	-0.0134033
4195.47	0.550537	-5.52368e-06
4199.79	0.550201	-8.17871e-06
4204.15	0.00137634	0.00933838
4208.49	0.550812	-8.23975e-06
4212.81	0.550629	-1.20239e-05
4217.17	0.00124207	0.00725555
4221.51	0.550537	-5.31006e-06
4225.83	0.549438	-4.57764e-07
4230.19	0.00162354	0.00569031
4234.53	0.550079	-3.05176e-06
4238.85	0.549286	-2.31934e-06
4243.21	0.000881958	0.00441345
4247.55	0.550964	-9.06372e-06
4251.87	0.550995	-1.297e-05
4256.25	0.549866	0.0160492
4260.57	0.550964	-9.91821e-06
4264.89	0.549622	-3.69263e-06
4269.27	0.549133	0.0111115
4273.59	0.55069	-8.08716e-06
4277.91	0.550842	-1.51062e-05
4282.29	0.549408	0.00204315
4286.61	0.550812	-1.00403e-05
4290.93	0.550293	-8.75854e-06
4295.31	0.549255	0.000614929
4299.63	0.549316	-1.09863e-06
4303.95	0.5495	-3.78418e-06
4308.33	0.549377	0.000277405
4312.65	0.550415	-7.8125e-06
4316.97	0.5495	-1.95313e-06
4321.35	0.550659	0.000136505
4325.67	0.551056	-1.23901e-05
4329.99	0.551056	-1.37329e-05
4334.37	0.550018	7.59277e-05
4338.69	0.550171	-7.35474e-06
4343.01	0.5495	-3.32642e-06
4347.39	0.549774	4.19006e-05
4351.71	0.549988	-3.78418e-06
4356.03	0.5495	-2.71606e-06
4360.41	0.551025	1.80054e-05
4364.73	0.549713	-3.44849e-06
4369.05	0.551056	-1.35803e-05
4373.43	0.549255	2.02332e-05
4377.75	0.550385	-9.15527e-06
4382.07	0.550476	-9.70459e-06
4386.45	0.551056	3.66211e-06
4390.77	0.549377	-2.44141e-06
4395.09	0.549927	-8.69751e-06
4399.47	0.551056	-8.8501e-07
4403.79	0.549561	-2.47192e-06
4408.11	0.549408	-1.89209e-06
4412.49	0.55011	4.57764e-07
4416.81	0.549774	-2.41089e-06
4421.15	-0.697052	-0.023291
4425.51	0.550537	-2.01416e-06
4429.83	0.549377	-5.49316e-07
4434.17	-0.69632	-0.019046
4438.53	0.549561	5.85937e-06
4442.85	0.550537	-1.04675e-05
4447.19	-0.696838	-0.016217
4451.55	0.549286	4.45557e-06
4455.87	0.550842	-1.25427e-05
4460.21	-0.698608	-0.0140015
4464.57	0.549286	4.08936e-06
4468.89	0.550507	-1.12305e-05
4473.25	0.00136108	0.008984375
4477.59	0.550781	-7.17163e-06
4481.91	0.55014	-5.76782e-06
4486.27	0.00136108	0.00706573
4490.61	0.549561	-7.93457e-07
4494.93	0.550751	-1.3031e-05
4499.29	0.00195007	0.00558624
4503.63	0.549561	-3.35693e-07
4507.95	0.550964	-1.24817e-05
4512.31	0.00182495	0.00436462
4516.65	0.550995	-1.171875E-05
4520.97	0.549255	1.89209e-06
4525.35	0.54895	0.0164429
4529.67	0.550262	-6.71387e-06
4533.99	0.550903	-1.26343e-05
4538.37	0.549988	0.0118713
4542.69	0.550049	-3.11279e-06
4547.01	0.549896	-4.5166e-06
4551.39	0.549957	0.00380585
4555.71	0.550446	-6.86646e-06
4560.03	0.551086	-1.17493e-05
4564.41	0.55072	0.000872192
4568.73	0.549133	-3.05176e-08
4573.05	0.549744	-2.34985e-06
4577.43	0.549377	0.000407379
4581.75	0.549622	-2.19727e-06
4586.07	0.550354	-7.01904e-06
4590.45	0.55011	0.000213135
4594.77	0.550476	-9.61304e-06
4599.09	0.54953	-2.74658e-06
4603.47	0.549835	0.000122101
4607.79	0.550323	-7.17163e-06
4612.11	0.549561	-3.66211e-06
4616.49	0.550751	6.6803e-05
4620.81	0.550507	-1.01624e-05
4625.13	0.550262	-7.38525e-06
4629.51	0.549561	4.71497e-05
4633.83	0.550812	-1.14746e-05
4638.15	0.550995	-1.45874e-05
4642.53	0.550964	1.88293e-05
4646.85	0.55014	-5.21851e-06
4651.17	0.551208	-1.33972e-05
4655.55	0.549622	1.86462e-05
4659.87	0.551056	-1.33362e-05
4664.19	0.550201	-8.39233e-06
4668.57	0.550018	9.67407e-06
4672.89	0.549469	-3.93677e-06
4677.21	0.549469	-2.65503e-06
4681.59	0.55014	4.97437e-06
4685.91	0.550568	-1.26038e-05
4690.25	-0.697876	-0.0236237
4694.61	0.551056	-2.92969e-06
4698.93	0.549194	1.2207e-07
4703.27	-0.696411	-0.0195343
4707.63	0.5495	5.12695e-06
4711.95	0.551178	-1.02844e-05
4716.29	-0.698029	-0.0167572
4720.65	0.549652	1.95313e-06
4724.97	0.550995	-1.25732e-05
4729.31	-0.697052	-0.0145935
4733.67	0.550781	-5.92041e-06
4737.99	0.551056	-1.29089e-05
4742.35	3.05176e-06	0.00857849
4746.69	0.551147	-9.73511e-06
4751.01	0.54953	-5.98145e-06
4755.37	0.00020752	0.00679321
4759.71	0.549255	2.89917e-06
4764.03	0.550018	-8.17871e-06
4768.39	0.00192871	0.00540588
4772.73	0.550323	-3.78418e-06
4777.05	0.550598	-8.69751e-06
4781.41	0.00144958	0.0042572
4785.75	0.551086	-1.12915e-05
4790.07	0.550842	-1.17798e-05
4794.46	0.548492	0.0167023
4798.78	0.550598	-6.7749e-06
4803.1	0.549469	-1.67847e-06
4807.48	0.549835	0.0124664
4811.8	0.549866	-2.16675e-06
4816.12	0.549469	-2.16675e-06
4820.5	0.550629	0.00687012
4824.82	0.549286	7.01904e-07
4829.14	0.55069	-1.11694e-05
4833.52	0.550354	0.00120544
4837.84	0.549561	-1.5564e-06
4842.16	0.549377	-1.70898e-06
4846.54	0.549957	0.000556335
4850.86	0.549286	-7.62939e-07
4855.18	0.549469	-2.28882e-06
4859.56	0.549286	0.000309845
4863.88	0.550415	-7.26318e-06
4868.2	0.550995	-1.3855e-05
4872.58	0.549347	0.000182404
4876.9	0.549591	-3.54004e-06
4881.22	0.551025	-1.41296e-05
4885.6	0.551056	0.0001008
4889.92	0.550079	-7.17163e-06
4894.24	0.550659	-1.31836e-05
4898.62	0.549347	7.28149e-05
4902.94	0.549988	-9.0332e-06
4907.26	0.549561	-3.08228e-06
4911.64	0.550629	3.60413e-05
4915.96	0.549225	-4.88281e-07
4920.28	0.550323	-8.97217e-06
4924.66	0.550842	2.09045e-05
4928.98	0.549286	-1.52588e-07
4933.3	0.550476	-1.07422e-05
4937.68	0.550842	1.00098e-05
4942	0.549683	-3.05176e-06
4946.32	0.549835	-6.28662e-06
4950.7	0.550415	8.27026e-06
4955.02	0.549347	-7.01904e-07
4959.36	-0.696411	-0.0239014
4963.72	0.550568	5.98145e-06
4968.04	0.550568	-1.04675e-05
4972.38	-0.697662	-0.0199158
4976.74	0.549347	9.27734e-06
4981.06	0.549988	-3.84521e-06
4985.4	-0.697205	-0.017218
4989.76	0.550751	-3.05176e-06
4994.08	0.549316	-1.15967e-06
4998.42	-0.697296	-0.0150726
5002.78	0.550018	-2.92969e-06
5007.1	0.550873	-1.25122e-05
5011.46	0.00157776	0.00815125
5015.8	0.549316	4.88281e-06
5020.12	0.549591	-3.23486e-06
5024.48	0.000708008	0.00651581
5028.82	0.549866	-5.49316e-07
5033.14	0.549683	-2.13623e-07
5037.5	0.000378418	0.00523499
5041.84	0.551025	-9.21631e-06
5046.16	0.551056	-1.15662e-05
5050.52	0.001474	0.0041507
5054.86	0.550537	-7.04956e-06
5059.18	0.549408	-2.89917e-06
5063.56	0.550018	0.0168671
5067.88	0.550903	-9.39941e-06
5072.2	0.550171	-4.02832e-06
5076.58	0.549744	0.0129303
5080.9	0.5495	1.19019e-06
5085.22	0.550629	-8.72803e-06
5089.6	0.549103	0.00837097
5093.92	0.549561	-1.28174e-06
5098.24	0.549286	-8.8501e-07
5102.62	0.550568	0.00155273
5106.94	0.550842	-1.03149e-05
5111.26	0.549591	-3.69263e-06
5115.64	0.550629	0.000707397
5119.96	0.549194	1.15967e-06
5124.28	0.549469	-2.19727e-06
5128.66	0.550354	0.000393463
5132.98	0.550598	-9.24683e-06
5137.3	0.549408	-1.7395e-06
5141.68	0.549316	0.0002421875
5146	0.549438	-2.71606e-06
5150.32	0.549927	-7.75146e-06
5154.7	0.549469	0.000154297
5159.02	0.550507	-1.01624e-05
5163.34	0.550171	-8.66699e-06
5167.72	0.550934	9.03015e-05
5172.04	0.549438	-2.71606e-06
5176.36	0.549316	-1.43433e-06
5180.74	0.550354	6.22559e-05
5185.06	0.550293	-7.1106e-06
5189.38	0.550934	-1.51367e-05
5193.76	0.551086	3.47595e-05
5198.08	0.549652	-2.31934e-06
5202.4	0.549805	-5.67627e-06
5206.78	0.550293	2.59094e-05
5211.1	0.549377	-2.13623e-07
5215.42	0.54953	-3.54004e-06
5219.8	0.550446	1.52893e-05
5224.12	0.54953	-2.65503e-06
5228.46	-0.697754	-0.0240143
5232.82	0.550262	9.06372e-06
5237.14	0.549622	-3.54004e-06
5241.48	-0.697784	-0.0201508
5245.84	0.550293	3.41797e-06
5250.16	0.549316	-5.18799e-07
5254.5	-0.697632	-0.0175262
5258.86	0.550049	3.90625e-06
5263.18	0.550385	-9.97925e-06
5267.52	-0.698334	-0.0154358
5271.88	0.5495	7.2937e-06
5276.2	0.551147	-1.42822e-05
5280.56	0.000790405	0.00782166
5284.9	0.549561	4.82178e-06
5289.22	0.550415	-9.58252e-06
5293.58	0.000933838	0.00628296
5297.92	0.549652	2.56348e-06
5302.24	0.550354	-1.0376e-05
5306.6	0.00105896	0.00506744
5310.94	0.55014	-1.83105e-06
5315.26	0.549377	-1.46484e-06
5319.62	0.000332642	0.00403687
5323.96	0.549377	2.50244e-06
5328.28	0.550446	-9.00269e-06
5332.66	0.548798	0.016983
5336.98	0.549316	2.31934e-06
5341.3	0.549957	-5.88989e-06
5345.68	0.549438	0.0132233
5350	0.551025	-1.02234e-05
5354.32	0.550598	-1.23291e-05
5358.7	0.549164	0.00910034
5363.02	0.550079	-1.52588e-07
5367.34	0.551025	-1.31836e-05
5371.72	0.550934	0.00199829
5376.04	0.549622	-3.57056e-06
5380.36	0.550232	-7.35474e-06
5384.74	0.550323	0.00088562
5389.06	0.549927	-4.66919e-06
5393.38	0.549316	-4.27246e-07
5397.76	0.549316	0.000504761
5402.08	0.549957	-4.57764e-06
5406.4	0.550903	-1.18103e-05
5410.78	0.550507	0.000301056
5415.1	0.549866	-5.5542e-06
5419.42	0.549469	7.93457e-07
5423.8	0.549835	0.000197449
5428.12	0.550873	-1.03455e-05
5432.44	0.549286	-2.7771e-06
5436.82	0.549652	0.000132446
5441.14	0.550323	-8.14819e-06
5445.46	0.550323	-7.2937e-06
5449.84	0.549561	8.96301e-05
5452.02	0.550415	-8.75854e-06