File: Edgar/20240607/20240607/electrodeposition_pulsed_potential_20240607_C/data/OCP_3
Time (s)	WE(1).Potential (V)
4434.94	0.0242523
4435.94	0.0351776
4436.94	0.0455017
4437.94	0.0552979
4438.94	0.0646057
4439.94	0.0734558
4440.94	0.0818787
4441.94	0.0899048
4442.94	0.0975647
4443.94	0.104889
4444.94	0.111847
4445.94	0.11853
4446.94	0.124908
4447.94	0.130981
4448.94	0.13678
4449.94	0.142365
4450.94	0.147675
4451.94	0.152802
4452.94	0.157715
4453.94	0.162415
4454.94	0.166901
4455.94	0.171265
4456.94	0.175415
4457.94	0.179443
4458.94	0.183319
4459.94	0.187042
4460.94	0.190674
4461.94	0.194183
4462.94	0.197571
4463.94	0.200836
4464.94	0.204041
4465.94	0.207123
4466.94	0.210144
4467.94	0.213043
4468.94	0.215912
4469.94	0.218689
4470.94	0.221436
4471.94	0.224091
4472.94	0.226685
4473.94	0.229218
4474.94	0.231781
4475.94	0.234253
4476.94	0.236664
4477.94	0.239075
4478.94	0.241425
4479.94	0.243744
4480.94	0.246033
4481.94	0.248322
4482.94	0.250549
4483.94	0.252747
4484.94	0.254974
4485.94	0.257202
4486.94	0.25946
4487.94	0.261688
4488.94	0.263947
4489.94	0.266235
4490.94	0.268463
4491.94	0.270721
4492.94	0.27298
4493.94	0.275208
4494.94	0.277496
4495.94	0.279755
4496.94	0.282043
4497.94	0.284302
4498.94	0.286621
4499.94	0.28894
4500.94	0.29126
4501.94	0.29364
4502.94	0.296021
4503.94	0.298462
4504.94	0.300934
4505.94	0.303375
4506.94	0.305878
4507.94	0.308441
4508.94	0.311066
4509.94	0.31369
4510.94	0.316345
4511.94	0.319092
4512.94	0.321899
4513.94	0.324707
4514.94	0.327576
4515.94	0.330536
4516.94	0.333496
4517.94	0.336609
4518.94	0.339722
4519.94	0.342896
4520.94	0.34613
4521.94	0.349426
4522.94	0.352783
4523.94	0.356232
4524.94	0.35968
4525.94	0.36319
4526.94	0.36676
4527.94	0.370392
4528.94	0.374023
4529.94	0.377716
4530.94	0.381439
4531.94	0.385193
4532.94	0.388947
4533.94	0.392792
4534.94	0.396606
4535.94	0.400421
4536.94	0.404266
4537.94	0.408173
4538.94	0.412079
4539.94	0.415955
4540.94	0.419861
4541.94	0.423798
4542.94	0.427795
4543.94	0.431763
4544.94	0.435822
4545.94	0.43988
4546.94	0.444
4547.94	0.44809
4548.94	0.45224
4549.94	0.45639
4550.94	0.460602
4551.94	0.464813
4552.94	0.469025
4553.94	0.473267
4554.94	0.477478
4555.94	0.481689
4556.94	0.485931
4557.94	0.490112
4558.94	0.494232
4559.94	0.498291
4560.94	0.502625
4561.94	0.506592
4562.94	0.510254
4563.94	0.513916
4564.94	0.517273
4565.94	0.52063
4566.94	0.523682
4567.94	0.526428
4568.94	0.529175
4569.94	0.531616
4570.94	0.534058
4571.94	0.536194
4572.94	0.538025
4573.94	0.539856
4574.94	0.541382
4575.94	0.542908
4576.94	0.544128
4577.94	0.545349
4578.94	0.546265
4579.94	0.54718
4580.94	0.548096
4581.94	0.549011
4582.94	0.549622
4583.94	0.550232
4584.94	0.550842
4585.94	0.551453
4586.94	0.552063
4587.94	0.552368
4588.94	0.552979
4589.94	0.553284
4590.94	0.553589
4591.94	0.554199
4592.94	0.554504
4593.94	0.55481
4594.94	0.555115
4595.94	0.55542
4596.94	0.555725
4597.94	0.555725
4598.94	0.55603
4599.94	0.556335
4600.94	0.556641
4601.94	0.556946
4602.94	0.557251
4603.94	0.557251
4604.94	0.557556
4605.94	0.557861
4606.94	0.557861
4607.94	0.558167
4608.94	0.558167
4609.94	0.558472
4610.94	0.558777
4611.94	0.558777
4612.94	0.559082
4613.94	0.559082