File: Edgar/20240607/20240607/electrodeposition_pulsed_potential_20240607_C/data/OCP_1
Time (s)	WE(1).Potential (V)
2.11122	0.533447
3.11122	0.533447
4.11122	0.533752
5.11122	0.533752
6.11122	0.533752
7.11122	0.533752
8.11122	0.534058
9.11122	0.534058
10.1112	0.534058
11.1112	0.534363
12.1112	0.534363
13.1112	0.534363
14.1112	0.534363
15.1112	0.534668
16.1112	0.534668
17.1112	0.534668
18.1112	0.534973
19.1112	0.534973
20.1112	0.534973
21.1112	0.534973
22.1112	0.535278
23.1112	0.535278
24.1112	0.535278
25.1112	0.535278
26.1112	0.535583
27.1112	0.535583
28.1112	0.535583
29.1112	0.535889
30.1112	0.535889
31.1112	0.535889
32.1112	0.535889
33.1112	0.536194
34.1112	0.536194
35.1112	0.536194
36.1112	0.536194
37.1112	0.536499
38.1112	0.536499
39.1112	0.536499
40.1112	0.536804
41.1112	0.536804
42.1112	0.536804
43.1112	0.536804
44.1112	0.537109
45.1112	0.537109
46.1112	0.537109
47.1112	0.537109
48.1112	0.537415
49.1112	0.537415
50.1112	0.537415
51.1112	0.537415
52.1112	0.53772
53.1112	0.53772
54.1112	0.53772
55.1112	0.538025
56.1112	0.538025
57.1112	0.538025
58.1112	0.538025
59.1112	0.53833
60.1112	0.53833
61.1112	0.53833
62.1112	0.53833
63.1112	0.538635
64.1112	0.538635
65.1112	0.538635
66.1112	0.538635
67.1112	0.53894
68.1112	0.53894
69.1112	0.53894
70.1112	0.53894
71.1112	0.539246
72.1112	0.539246
73.1112	0.539246
74.1112	0.539246
75.1112	0.539551
76.1112	0.539551
77.1112	0.539551
78.1112	0.539551
79.1112	0.539856
80.1112	0.539856
81.1112	0.539856
82.1112	0.539856
83.1112	0.540161
84.1112	0.540161
85.1112	0.540161
86.1112	0.540161
87.1112	0.540466
88.1112	0.540466
89.1112	0.540466
90.1112	0.540466
91.1112	0.540771
92.1112	0.540771
93.1112	0.540771
94.1112	0.540771
95.1112	0.541077
96.1112	0.541077
97.1112	0.541077
98.1112	0.541077
99.1112	0.541382
100.111	0.541382
101.111	0.541382
102.111	0.541382
103.111	0.541687
104.111	0.541687
105.111	0.541687
106.111	0.541992
107.111	0.541992
108.111	0.541992
109.111	0.541992
110.111	0.542297
111.111	0.542297
112.111	0.542297
113.111	0.542297
114.111	0.542603
115.111	0.542603
116.111	0.542603
117.111	0.542603
118.111	0.542908
119.111	0.542908
120.111	0.542908
121.111	0.542908
122.111	0.542908
123.111	0.543213
124.111	0.543213
125.111	0.543213
126.111	0.543518
127.111	0.543518
128.111	0.543518
129.111	0.543518
130.111	0.543518
131.111	0.543823
132.111	0.543823
133.111	0.543823
134.111	0.543823
135.111	0.543823
136.111	0.544128
137.111	0.544128
138.111	0.544128
139.111	0.544128
140.111	0.544434
141.111	0.544434
142.111	0.544434
143.111	0.544434
144.111	0.544434
145.111	0.544739
146.111	0.544739
147.111	0.544739
148.111	0.544739
149.111	0.545044
150.111	0.545044
151.111	0.545044
152.111	0.545044
153.111	0.545044
154.111	0.545349
155.111	0.545349
156.111	0.545349
157.111	0.545349
158.111	0.545654
159.111	0.545654
160.111	0.545654
161.111	0.545654
162.111	0.545654
163.111	0.545959
164.111	0.545959
165.111	0.545959
166.111	0.545959
167.111	0.546265
168.111	0.546265
169.111	0.546265
170.111	0.546265
171.111	0.546265
172.111	0.54657
173.111	0.54657
174.111	0.54657
175.111	0.54657
176.111	0.54657
177.111	0.546875
178.111	0.546875
179.111	0.546875
180.111	0.546875
181.111	0.546875