File: Edgar/20240424/20240424/chronoamperommetry_steps/A/OCP_1
Time (s)	WE(1).Potential (V)
1.99877	-0.000912476
2.99877	-0.000823975
3.99877	-0.000741577
4.99877	-0.000646973
5.99877	-0.000564575
6.99877	-0.000473022
7.99877	-0.000390625
8.99877	-0.000292969
9.99877	-0.000216675
10.9988	-0.00012207
11.9988	-4.27246e-05
12.9988	4.88281e-05
13.9988	0.000140381
14.9988	0.000231934
15.9988	0.000326538
16.9988	0.000418091
17.9988	0.000518799
18.9988	0.0006073
19.9988	0.000692749
20.9988	0.000787354
21.9988	0.000872803
22.9988	0.000964355
23.9988	0.00105896
24.9988	0.00113831
25.9988	0.00123901
26.9988	0.00133972
27.9988	0.00142212
28.9988	0.00151062
29.9988	0.00161133
30.9988	0.00169067
31.9988	0.00178833
32.9988	0.00187378
33.9988	0.00198059
34.9988	0.00206299
35.9988	0.00215454
36.9988	0.00223694
37.9988	0.00233154
38.9988	0.00242004
39.9988	0.00250854
40.9988	0.00258484
41.9988	0.00267029
42.9988	0.00276184
43.9988	0.00284729
44.9988	0.00293579
45.9988	0.00301514
46.9988	0.00308533
47.9988	0.00319214
48.9988	0.00327148
49.9988	0.00337219
50.9988	0.0034668
51.9988	0.00355225
52.9988	0.0036438
53.9988	0.0037323
54.9988	0.00382385
55.9988	0.00392151
56.9988	0.00400085
57.9988	0.00410156
58.9988	0.00418396
59.9988	0.00427246
60.9988	0.00436707