File: Edgar/20240605/20240605/electrodeposition_pulsed_potential_20240605_B/data/OCP_1
Time (s)	WE(1).Potential (V)
2.15622	0.580444
3.15622	0.580444
4.15622	0.580444
5.15622	0.580444
6.15622	0.58075
7.15622	0.58075
8.15622	0.58075
9.15622	0.58075
10.1562	0.58075
11.1562	0.581055
12.1562	0.581055
13.1562	0.581055
14.1562	0.581055
15.1562	0.581055
16.1562	0.58136
17.1562	0.58136
18.1562	0.58136
19.1562	0.58136
20.1562	0.58136
21.1562	0.581665
22.1562	0.581665
23.1562	0.581665
24.1562	0.581665
25.1562	0.58197
26.1562	0.58197
27.1562	0.58197
28.1562	0.58197
29.1562	0.58197
30.1562	0.582275
31.1562	0.582275
32.1562	0.582275
33.1562	0.582581
34.1562	0.582581
35.1562	0.582581
36.1562	0.582581
37.1562	0.582886
38.1562	0.582886
39.1562	0.582886
40.1562	0.582886
41.1562	0.582886
42.1562	0.582886
43.1562	0.583191
44.1562	0.583191
45.1562	0.583191
46.1562	0.583496
47.1562	0.583496
48.1562	0.583496
49.1562	0.583496
50.1562	0.583496
51.1562	0.583801
52.1562	0.583801
53.1562	0.583801
54.1562	0.583801
55.1562	0.584106
56.1562	0.584106
57.1562	0.584106
58.1562	0.584106
59.1562	0.584106
60.1562	0.584412
61.1562	0.584412
62.1562	0.584412
63.1562	0.584717
64.1562	0.584717
65.1562	0.584717
66.1562	0.584717
67.1562	0.584717
68.1562	0.585022
69.1562	0.585022
70.1562	0.585022
71.1562	0.585022
72.1562	0.585327
73.1562	0.585327
74.1562	0.585327
75.1562	0.585327
76.1562	0.585632
77.1562	0.585632
78.1562	0.585632
79.1562	0.585632
80.1562	0.5859375
81.1562	0.5859375
82.1562	0.5859375
83.1562	0.5859375
84.1562	0.5859375
85.1562	0.586243
86.1562	0.586243
87.1562	0.586243
88.1562	0.586243
89.1562	0.586548
90.1562	0.586548
91.1562	0.586548
92.1562	0.586548
93.1562	0.586548
94.1562	0.586548
95.1562	0.586853
96.1562	0.586853
97.1562	0.586853
98.1562	0.587158
99.1562	0.587158
100.156	0.587158
101.156	0.587158
102.156	0.587463
103.156	0.587463
104.156	0.587463
105.156	0.587463
106.156	0.587769
107.156	0.587769
108.156	0.587769
109.156	0.587769
110.156	0.587769
111.156	0.588074
112.156	0.588074
113.156	0.588074
114.156	0.588074
115.156	0.588379
116.156	0.588379
117.156	0.588379
118.156	0.588379
119.156	0.588684
120.156	0.588684
121.156	0.588684
122.156	0.588684
123.156	0.588989
124.156	0.588989
125.156	0.588989
126.156	0.588989
127.156	0.588989
128.156	0.589294
129.156	0.589294
130.156	0.589294
131.156	0.589294
132.156	0.5896
133.156	0.5896
134.156	0.5896
135.156	0.5896
136.156	0.589905
137.156	0.589905
138.156	0.589905
139.156	0.589905
140.156	0.59021
141.156	0.59021
142.156	0.59021
143.156	0.59021
144.156	0.59021
145.156	0.59021
146.156	0.590515
147.156	0.590515
148.156	0.590515
149.156	0.590515
150.156	0.59082
151.156	0.59082
152.156	0.59082
153.156	0.59082
154.156	0.59082
155.156	0.591125
156.156	0.591125
157.156	0.591125
158.156	0.591125
159.156	0.591431
160.156	0.591431
161.156	0.591431
162.156	0.591431
163.156	0.591431
164.156	0.591736
165.156	0.591736
166.156	0.591736
167.156	0.591736
168.156	0.592041
169.156	0.592041
170.156	0.592041
171.156	0.592041
172.156	0.592041
173.156	0.592041
174.156	0.592346
175.156	0.592346
176.156	0.592346
177.156	0.592346
178.156	0.592346
179.156	0.592651
180.156	0.592651
181.156	0.592651