File: Edgar/20240529/20240529/electrodeposition_pulsed_potential_20240529_A/OCP_1
Time (s)	WE(1).Potential (V)
3.49677	0.521851
4.49677	0.521851
5.49677	0.521851
6.49677	0.522156
7.49677	0.522156
8.49677	0.522156
9.49677	0.522156
10.4968	0.522156
11.4968	0.522156
12.4968	0.522461
13.4968	0.522461
14.4968	0.522461
15.4968	0.522461
16.4968	0.522461
17.4968	0.522461
18.4968	0.522766
19.4968	0.522766
20.4968	0.522766
21.4968	0.522766
22.4968	0.522766
23.4968	0.522766
24.4968	0.522766
25.4968	0.523071
26.4968	0.523071
27.4968	0.523071
28.4968	0.523071
29.4968	0.523071
30.4968	0.523071
31.4968	0.523376
32.4968	0.523376
33.4968	0.523376
34.4968	0.523376
35.4968	0.523376
36.4968	0.523376
37.4968	0.523682
38.4968	0.523682
39.4968	0.523682
40.4968	0.523682
41.4968	0.523682
42.4968	0.523682
43.4968	0.523682
44.4968	0.523987
45.4968	0.523987
46.4968	0.523987
47.4968	0.523987
48.4968	0.523987
49.4968	0.523987
50.4968	0.524292
51.4968	0.524292
52.4968	0.524292
53.4968	0.524292
54.4968	0.524292
55.4968	0.524292
56.4968	0.524292
57.4968	0.524597
58.4968	0.524597
59.4968	0.524597
60.4968	0.524597
61.4968	0.524597
62.4968	0.524597
63.4968	0.524902
64.4968	0.524902
65.4968	0.524902
66.4968	0.524902
67.4968	0.524902
68.4968	0.524902
69.4968	0.524902
70.4968	0.525208
71.4968	0.525208
72.4968	0.525208
73.4968	0.525208
74.4968	0.525208
75.4968	0.525208
76.4968	0.525208
77.4968	0.525513
78.4968	0.525513
79.4968	0.525513
80.4968	0.525513
81.4968	0.525513
82.4968	0.525513
83.4968	0.525513
84.4968	0.525818
85.4968	0.525818
86.4968	0.525818
87.4968	0.525818
88.4968	0.525818
89.4968	0.525818
90.4968	0.526123
91.4968	0.526123
92.4968	0.526123
93.4968	0.526123
94.4968	0.526123
95.4968	0.526123
96.4968	0.526123
97.4968	0.526428
98.4968	0.526428
99.4968	0.526428
100.497	0.526428
101.497	0.526428
102.497	0.526428
103.497	0.526428
104.497	0.526428
105.497	0.526428
106.497	0.526428
107.497	0.526428
108.497	0.526428
109.497	0.526428
110.497	0.526428
111.497	0.526428
112.497	0.526428
113.497	0.526428
114.497	0.526428
115.497	0.526428
116.497	0.526428
117.497	0.526428
118.497	0.526428
119.497	0.526428
120.497	0.526428
121.497	0.526733
122.497	0.526733
123.497	0.526733
124.497	0.526733
125.497	0.526733
126.497	0.526733
127.497	0.526733
128.497	0.527039
129.497	0.527039
130.497	0.527039
131.497	0.527039
132.497	0.527039
133.497	0.527039
134.497	0.527039
135.497	0.527039
136.497	0.527344
137.497	0.527344
138.497	0.527344
139.497	0.527344
140.497	0.527344
141.497	0.527344
142.497	0.527344
143.497	0.527344
144.497	0.527649
145.497	0.527649
146.497	0.527649
147.497	0.527649
148.497	0.527649
149.497	0.527649
150.497	0.527649
151.497	0.527649
152.497	0.527954
153.497	0.527954
154.497	0.527954
155.497	0.527954
156.497	0.527954
157.497	0.527954
158.497	0.527954
159.497	0.528259
160.497	0.528259
161.497	0.528259
162.497	0.528259
163.497	0.528259
164.497	0.528259
165.497	0.528564
166.497	0.528564
167.497	0.528564
168.497	0.528564
169.497	0.528564
170.497	0.528564
171.497	0.528564
172.497	0.52887
173.497	0.52887
174.497	0.52887
175.497	0.52887
176.497	0.52887
177.497	0.52887
178.497	0.52887
179.497	0.529175
180.497	0.529175
181.497	0.529175
182.497	0.529175