File: Edgar/20240529/20240529/electrodeposition_pulsed_potential_20240529_A/OCP_3
Time (s)	WE(1).Potential (V)
5476.03	0.52063
5477.03	0.513611
5478.03	0.507202
5479.03	0.502014
5480.03	0.49704
5481.03	0.493073
5482.03	0.489685
5483.03	0.486816
5484.03	0.484375
5485.03	0.48233
5486.03	0.480591
5487.03	0.479156
5488.03	0.477966
5489.03	0.476959
5490.03	0.476166
5491.03	0.475555
5492.03	0.475037
5493.03	0.47464
5494.03	0.474335
5495.03	0.474121
5496.03	0.473969
5497.03	0.473846
5498.03	0.473816
5499.03	0.473816
5500.03	0.473877
5501.03	0.473969
5502.03	0.47403
5503.03	0.474121
5504.03	0.474274
5505.03	0.474426
5506.03	0.474579
5507.03	0.474762
5508.03	0.474945
5509.03	0.475128
5510.03	0.475281
5511.03	0.475494
5512.03	0.475647
5513.03	0.4758
5514.03	0.475952
5515.03	0.476044
5516.03	0.476166
5517.03	0.476288
5518.03	0.47644
5519.03	0.4765625
5520.03	0.476715
5521.03	0.476898
5522.03	0.477051
5523.03	0.477203
5524.03	0.477325
5525.03	0.477448
5526.03	0.4776
5527.03	0.477753
5528.03	0.477936
5529.03	0.478088
5530.03	0.47818
5531.03	0.478302
5532.03	0.478455
5533.03	0.478577
5534.03	0.478699
5535.03	0.47879
5536.03	0.478912
5537.03	0.478973
5538.03	0.479065
5539.03	0.479156
5540.03	0.479218
5541.03	0.479279
5542.03	0.479401
5543.03	0.479492
5544.03	0.479706
5545.03	0.480621
5546.03	0.481964
5547.03	0.483124
5548.03	0.484283
5549.03	0.485352
5550.03	0.486115
5551.03	0.486176
5552.03	0.485809
5553.03	0.485443
5554.03	0.485107
5555.03	0.484802
5556.03	0.484528
5557.03	0.484314
5558.03	0.48407
5559.03	0.483856
5560.03	0.483734
5561.03	0.483582
5562.03	0.483398
5563.03	0.483246
5564.03	0.483093
5565.03	0.482971
5566.03	0.48288
5567.03	0.482788
5568.03	0.482697
5569.03	0.482666
5570.03	0.482635
5571.03	0.482666
5572.03	0.482635
5573.03	0.482605
5574.03	0.482574
5575.03	0.482574
5576.03	0.482544
5577.03	0.482513
5578.03	0.482513
5579.03	0.482513
5580.03	0.482483
5581.03	0.482513
5582.03	0.482513
5583.03	0.482544
5584.03	0.482544
5585.03	0.482544
5586.03	0.482544
5587.03	0.482544
5588.03	0.482574
5589.03	0.482574
5590.03	0.482574
5591.03	0.482574
5592.03	0.482544
5593.03	0.482574
5594.03	0.482635
5595.03	0.482666
5596.03	0.482697
5597.03	0.482727
5598.03	0.482758
5599.03	0.482788
5600.03	0.482819
5601.03	0.48288
5602.03	0.48291
5603.03	0.482971
5604.03	0.483032
5605.03	0.483063
5606.03	0.483093
5607.03	0.483124
5608.03	0.483124
5609.03	0.483124
5610.03	0.483154
5611.03	0.483185
5612.03	0.483215
5613.03	0.483215
5614.03	0.483246
5615.03	0.483307
5616.03	0.483337
5617.03	0.483368
5618.03	0.483368
5619.03	0.483337
5620.03	0.483337
5621.03	0.483337
5622.03	0.483368
5623.03	0.483398
5624.03	0.483398
5625.03	0.483398
5626.03	0.483398
5627.03	0.483368
5628.03	0.483368
5629.03	0.483398
5630.03	0.483398
5631.03	0.483459
5632.03	0.483521
5633.03	0.483551
5634.03	0.483551
5635.03	0.483551
5636.03	0.483582
5637.03	0.483582
5638.03	0.483612
5639.03	0.483643
5640.03	0.483673
5641.03	0.483704
5642.03	0.483765
5643.03	0.483826
5644.03	0.483856
5645.03	0.483948
5646.03	0.483978
5647.03	0.484009
5648.03	0.484039
5649.03	0.484039
5650.03	0.48407
5651.03	0.4841
5652.03	0.4841
5653.03	0.484131
5654.03	0.484131
5655.03	0.484131