File: Edgar/20240529/20240529/electrodeposition_pulsed_potential_20240529_A/pulses_1000_to_2000.txt
Time (s)	WE(1).Potential (V)	WE(1).Current (A)
1506.52	-0.698456	-0.0163269
1510.88	0.529053	1.40991e-05
1515.2	0.529724	-1.98364e-06
1519.54	-0.697998	-0.0116577
1523.9	0.529266	1.26648e-05
1528.22	0.527985	1.00098e-05
1532.56	-0.698212	-0.00904236
1536.92	0.528229	1.90125e-05
1541.24	0.529114	-1.12915e-06
1545.58	-0.698059	-0.00744629
1549.94	0.528748	1.58691e-05
1554.26	0.529755	-3.11279e-06
1558.62	-0.000119019	0.0106781
1562.96	0.529724	6.19507e-06
1567.28	0.527954	9.46045e-06
1571.64	0.000915527	0.00715576
1575.98	0.529083	1.02539e-05
1580.3	0.528351	5.43213e-06
1584.66	-0.000222778	0.00484802
1589	0.528778	1.38855e-05
1593.32	0.527985	8.69751e-06
1597.68	0.00100098	0.00306427
1602.02	0.528564	1.34277e-05
1606.34	0.529633	-4.08936e-06
1610.72	0.528778	0.00323822
1615.04	0.529663	3.93677e-06
1619.36	0.529297	-2.80762e-06
1623.74	0.527863	0.000337341
1628.06	0.529541	4.3335e-06
1632.38	0.529694	-2.44141e-06
1636.76	0.527985	0.000163849
1641.08	0.529663	2.99072e-06
1645.4	0.527954	6.68335e-06
1649.78	0.529175	0.000102051
1654.1	0.528778	7.47681e-06
1658.42	0.52951	-1.15967e-06
1662.8	0.528076	8.00476e-05
1667.12	0.52948	2.50244e-06
1671.44	0.529724	-4.42505e-06
1675.82	0.529602	5.18188e-05
1680.14	0.528107	1.20239e-05
1684.46	0.528748	1.09863e-06
1688.84	0.528442	5.02014e-05
1693.16	0.529205	3.69263e-06
1697.48	0.528931	4.27246e-06
1701.86	0.527985	4.80652e-05
1706.18	0.528229	9.12476e-06
1710.5	0.529724	-3.11279e-06
1714.88	0.528381	3.89099e-05
1719.2	0.528839	5.88989e-06
1723.52	0.529449	-4.05884e-06
1727.9	0.528534	3.52783e-05
1732.22	0.528961	3.26538e-06
1736.54	0.527924	7.99561e-06
1740.92	0.529541	2.24609e-05
1745.24	0.528595	6.37817e-06
1749.56	0.528107	7.17163e-06
1753.94	0.529694	1.77002e-05
1758.26	0.527924	1.11084e-05
1762.58	0.529449	-2.10571e-06
1766.96	0.529694	1.61438e-05
1771.28	0.529572	6.10352e-08
1775.62	-0.699341	-0.0170227
1779.98	0.528595	2.21558e-05
1784.3	0.529541	-1.28174e-06
1788.64	-0.697876	-0.0125641
1793	0.529388	1.31226e-05
1797.32	0.529358	6.40869e-07
1801.66	-0.699463	-0.00982666
1806.02	0.529541	1.2085e-05
1810.34	0.528137	9.3689e-06
1814.68	-0.698822	-0.00810242
1819.04	0.528473	1.69678e-05
1823.36	0.527893	1.07727e-05
1827.72	-0.000738525	0.01073
1832.06	0.527924	2.06299e-05
1836.38	0.529083	2.56348e-06
1840.74	-0.000476074	0.00739349
1845.08	0.528564	1.54114e-05
1849.4	0.529633	1.00708e-06
1853.76	-0.000436401	0.00517609
1858.1	0.529633	7.47681e-06
1862.42	0.528412	8.23975e-06
1866.78	-0.000256348	0.00346588
1871.12	0.529694	4.85229e-06
1875.44	0.529724	-2.99072e-06
1879.82	0.529205	0.00844421
1884.14	0.527985	1.75171e-05
1888.46	0.529175	-9.46045e-07
1892.84	0.528992	0.00046521
1897.16	0.529602	4.08936e-06
1901.48	0.529663	-3.2959e-06
1905.86	0.529083	0.000196411
1910.18	0.52887	8.05664e-06
1914.5	0.529419	-7.62939e-07
1918.88	0.529724	0.000115784
1923.2	0.529724	3.23486e-06
1927.52	0.528473	4.42505e-06
1931.9	0.527985	9.35364e-05
1936.22	0.527924	1.40991e-05
1940.54	0.52951	1.19019e-06
1944.92	0.528839	6.45752e-05
1949.24	0.529114	5.7373e-06
1953.56	0.528137	6.13403e-06
1957.94	0.528625	5.59998e-05
1962.26	0.528198	1.13525e-05
1966.58	0.528381	3.75366e-06
1970.96	0.52829	4.99268e-05
1975.28	0.528046	1.0498e-05
1979.6	0.529419	-2.62451e-06
1983.98	0.528564	4.00085e-05
1988.3	0.529419	2.44141e-06
1992.62	0.528198	8.39233e-06
1997	0.527985	4.00391e-05
2001.32	0.528259	1.16882e-05
2005.64	0.529449	-1.2207e-06
2010.02	0.528564	2.84119e-05
2014.34	0.529175	2.44141e-06
2018.66	0.527954	9.21631e-06
2023.04	0.528137	3.09448e-05
2027.36	0.528717	5.70679e-06
2031.68	0.527924	9.33838e-06
2036.06	0.529541	2.01111e-05
2040.38	0.529785	-7.01904e-07
2044.72	-0.698212	-0.018103
2049.08	0.528503	2.24609e-05
2053.4	0.528473	8.08716e-06
2057.74	-0.697876	-0.0137115
2062.1	0.528687	2.15454e-05
2066.42	0.528076	1.1261e-05
2070.76	-0.699554	-0.0109192
2075.12	0.527985	2.46277e-05
2079.44	0.529419	-9.46045e-07
2083.78	-0.699677	-0.00907288
2088.14	0.529144	1.76392e-05
2092.46	0.527985	1.09558e-05
2096.82	0.000494385	0.0104797
2101.16	0.528168	2.13623e-05
2105.48	0.528961	3.02124e-06
2109.84	0.000897217	0.00743683
2114.18	0.529694	9.64355e-06
2118.5	0.529083	-6.10352e-07
2122.87	0.000616455	0.00538239
2127.21	0.52948	9.33838e-06
2131.53	0.528137	9.765625E-06
2135.89	0.000668335	0.00379395
2140.23	0.529297	8.75854e-06
2144.55	0.529205	2.68555e-06
2148.93	0.528137	0.0110107
2153.25	0.528717	1.12e-05
2157.57	0.529388	1.43433e-06
2161.95	0.529266	0.000870667
2166.27	0.528046	1.89209e-05
2170.59	0.529633	-2.59399e-06
2174.97	0.528168	0.00026825
2179.29	0.528503	1.0376e-05
2183.61	0.528259	6.83594e-06
2187.99	0.52832	0.000150513
2192.31	0.528442	1.474e-05
2196.63	0.528015	9.79614e-06
2201.01	0.529053	9.95483e-05
2205.33	0.52951	3.17383e-06
2209.65	0.529602	-1.15967e-06
2214.03	0.528137	7.94983e-05
2218.35	0.529022	9.58252e-06
2222.67	0.527924	9.97925e-06
2227.05	0.528259	6.57043e-05
2231.37	0.527863	1.37939e-05
2235.69	0.528137	8.08716e-06
2240.07	0.529449	4.54102e-05
2244.39	0.528168	1.44653e-05
2248.71	0.527985	9.42993e-06
2253.09	0.529083	3.92456e-05
2257.41	0.5289	9.552e-06
2261.73	0.528046	8.75854e-06
2266.11	0.52948	3.17688e-05
2270.43	0.527893	1.39771e-05
2274.75	0.528625	3.72314e-06
2279.13	0.528198	3.73535e-05
2283.45	0.529449	1.67847e-06
2287.77	0.528229	7.87354e-06
2292.15	0.528381	3.41797e-05
2296.47	0.529572	2.96021e-06
2300.79	0.529724	-2.86865e-06
2305.17	0.528381	2.65198e-05
2309.49	0.529419	3.38745e-06
2313.83	-0.697876	-0.0194794
2318.19	0.528381	2.56042e-05
2322.51	0.529572	1.86157e-06
2326.85	-0.699341	-0.0150421
2331.21	0.529358	1.76086e-05
2335.53	0.528198	1.18408e-05
2339.87	-0.699341	-0.0122375
2344.23	0.527985	2.54822e-05
2348.55	0.528015	1.20544e-05
2352.89	-0.698822	-0.01026
2357.25	0.528625	1.9989e-05
2361.57	0.528229	9.15527e-06
2365.93	-0.000900269	0.0101715
2370.27	0.529236	1.44043e-05
2374.59	0.529785	2.13623e-07
2378.95	0.000744629	0.00749512
2383.29	0.527954	2.04163e-05
2387.61	0.529388	-9.76562e-07
2391.97	0.00100098	0.00561981
2396.31	0.528229	1.74866e-05
2400.63	0.528076	9.3689e-06
2404.99	0.000878906	0.00414795
2409.33	0.528564	1.55029e-05
2413.65	0.527985	1.05591e-05
2418.03	0.528687	0.012851
2422.35	0.529846	8.63647e-06
2426.67	0.527985	9.46045e-06
2431.05	0.528473	0.00310913
2435.37	0.529663	7.84302e-06
2439.69	0.52951	-1.95313e-06
2444.07	0.529144	0.000436371
2448.39	0.528961	8.11768e-06
2452.71	0.528992	2.99072e-06
2457.09	0.52829	0.000204193
2461.41	0.528076	1.68457e-05
2465.73	0.527954	9.49097e-06
2470.11	0.528717	0.000123688
2474.43	0.529602	4.73022e-06
2478.75	0.529327	-1.2207e-06
2483.13	0.528748	8.98743e-05
2487.45	0.528717	1.10779e-05
2491.77	0.528229	7.65991e-06
2496.15	0.529572	6.38733e-05
2500.47	0.527985	1.6449e-05
2504.79	0.529755	-1.09863e-06
2509.17	0.529694	5.07202e-05
2513.49	0.528595	1.08032e-05
2517.81	0.5289	5.79834e-06
2522.19	0.52951	4.32129e-05
2526.51	0.528931	7.53784e-06
2530.83	0.52829	7.26318e-06
2535.21	0.528351	4.39758e-05
2539.53	0.527863	1.43433e-05
2543.85	0.528381	6.86646e-06
2548.23	0.528168	4.15344e-05
2552.55	0.52951	3.2959e-06
2556.87	0.529266	1.52588e-07
2561.25	0.528992	2.73743e-05
2565.57	0.52829	1.15356e-05
2569.89	0.528748	5.09644e-06
2574.27	0.527893	3.479e-05
2578.59	0.528259	1.18713e-05
2582.93	-0.697601	-0.0204712
2587.29	0.527893	3.17078e-05
2591.61	0.527985	1.22681e-05
2595.95	-0.698303	-0.0159882
2600.31	0.529602	1.78833e-05
2604.63	0.528473	8.69751e-06
2608.97	-0.698975	-0.01315
2613.33	0.529633	1.83105e-05
2617.65	0.528137	9.79614e-06
2621.99	-0.699371	-0.0110748
2626.35	0.528351	2.36206e-05
2630.67	0.529022	5.61523e-06
2635.03	-0.00101318	0.00993652
2639.37	0.527863	2.56958e-05
2643.69	0.527954	1.23596e-05
2648.05	-0.000817871	0.00750732
2652.39	0.527954	2.45972e-05
2656.71	0.528778	7.44629e-06
2661.07	0.000964355	0.00574982
2665.41	0.528137	2.10571e-05
2669.73	0.529541	-3.05176e-08
2674.09	-0.000601196	0.00436768
2678.43	0.529694	8.94165e-06
2682.75	0.528198	6.40869e-06
2687.13	0.527557	0.0139496
2691.45	0.529388	1.06812e-05
2695.77	0.528381	8.5144e-06
2700.15	0.527924	0.00762939
2704.47	0.528656	1.0437e-05
2708.79	0.528809	5.27954e-06
2713.17	0.529083	0.000720215
2717.49	0.528625	1.31226e-05
2721.81	0.528839	4.82178e-06
2726.19	0.527985	0.000277252
2730.51	0.528076	1.59302e-05
2734.83	0.529358	1.95313e-06
2739.21	0.527954	0.000159851
2743.53	0.529358	8.78906e-06
2747.85	0.529022	3.50952e-06
2752.23	0.529694	9.94568e-05
2756.55	0.528015	1.66016e-05
2760.87	0.528656	6.56128e-06
2765.25	0.529633	7.42798e-05
2769.57	0.529388	6.74438e-06
2773.89	0.529388	-5.49316e-07
2778.27	0.529358	5.88379e-05
2782.59	0.528076	1.48926e-05
2786.91	0.529419	-2.13623e-07
2791.29	0.528198	5.47791e-05
2795.61	0.529663	4.21143e-06
2799.93	0.529205	-7.32422e-07
2804.31	0.529297	4.12903e-05
2806.49	0.529572	-2.2583e-06