File: Edgar/20240529/20240529/electrodeposition_pulsed_potential_20240529_A/pulses_3000_to_4000.txt
Time (s)	WE(1).Potential (V)	WE(1).Current (A)
4152.55	-0.698944	-0.0236206
4156.91	0.528748	3.55225e-05
4161.23	0.529175	6.83594e-06
4165.57	-0.69754	-0.0195953
4169.93	0.529633	2.67639e-05
4174.25	0.529388	4.02832e-06
4178.59	-0.698517	-0.0167999
4182.95	0.528442	3.12195e-05
4187.27	0.528717	9.94873e-06
4191.61	-0.697815	-0.0146393
4195.97	0.528412	2.91748e-05
4200.29	0.529449	7.32422e-06
4204.65	-0.000302124	0.00821838
4208.99	0.529633	1.75781e-05
4213.31	0.528748	1.09253e-05
4217.67	-0.000747681	0.0066272
4222.01	0.529633	1.53809e-05
4226.33	0.52832	1.14136e-05
4230.69	0.000906372	0.0053949
4235.03	0.528778	1.85242e-05
4239.35	0.528442	1.05896e-05
4243.71	0.000637817	0.00437164
4248.05	0.529816	1.19629e-05
4252.37	0.529694	2.01416e-06
4256.75	0.528595	0.0165222
4261.07	0.528229	2.23999e-05
4265.39	0.528076	1.297e-05
4269.77	0.528625	0.0129425
4274.09	0.528442	1.82495e-05
4278.41	0.528839	5.92041e-06
4282.79	0.52771	0.00916748
4287.11	0.52832	1.85852e-05
4291.43	0.52829	1.03455e-05
4295.81	0.52951	0.00204315
4300.13	0.52829	1.93481e-05
4304.45	0.529358	2.89917e-06
4308.83	0.529297	0.000678711
4313.15	0.529266	1.28479e-05
4317.47	0.529327	2.31934e-06
4321.85	0.528687	0.000331238
4326.17	0.529388	8.42285e-06
4330.49	0.529755	-1.92261e-06
4334.87	0.528534	0.000191315
4339.19	0.529633	7.59888e-06
4343.51	0.528046	1.09558e-05
4347.89	0.529663	0.0001171875
4352.21	0.529205	1.05896e-05
4356.53	0.529541	-3.05176e-08
4360.91	0.527985	9.57336e-05
4365.23	0.529846	6.22559e-06
4369.55	0.529419	-7.93457e-07
4373.93	0.529663	6.4209e-05
4378.25	0.528961	1.07727e-05
4382.57	0.528015	1.15967e-05
4386.95	0.528442	6.01196e-05
4391.27	0.529449	4.15039e-06
4395.59	0.528442	9.0332e-06
4399.97	0.528656	5.0293e-05
4404.29	0.527924	1.55334e-05
4408.61	0.529175	2.22778e-06
4412.99	0.529785	3.4729e-05
4417.31	0.528412	1.16882e-05
4421.65	-0.697266	-0.0239166
4426.01	0.529175	3.62549e-05
4430.33	0.528046	1.44653e-05
4434.67	-0.698029	-0.0199615
4439.03	0.529144	3.4668e-05
4443.35	0.528931	8.14819e-06
4447.69	-0.69873	-0.0171478
4452.05	0.528442	2.98157e-05
4456.37	0.529633	3.32642e-06
4460.71	-0.699158	-0.0150177
4465.07	0.529358	2.38342e-05
4469.39	0.528046	1.50146e-05
4473.75	-0.000900269	0.00802612
4478.09	0.528442	2.6062e-05
4482.41	0.529633	2.16675e-06
4486.77	-0.000186157	0.006484375
4491.11	0.528778	2.24304e-05
4495.43	0.529633	2.16675e-06
4499.79	-0.0006073	0.00530426
4504.13	0.529541	1.55334e-05
4508.45	0.528107	1.42517e-05
4512.81	0.00111694	0.00430786
4517.15	0.528259	2.45972e-05
4521.47	0.529053	4.57764e-06
4525.85	0.528412	0.0166656
4530.17	0.528351	2.06299e-05
4534.49	0.528259	1.03455e-05
4538.87	0.528564	0.0132019
4543.19	0.529541	1.06506e-05
4547.51	0.529694	1.31226e-06
4551.89	0.528534	0.00968323
4556.21	0.528168	1.95618e-05
4560.53	0.529572	3.96729e-07
4564.91	0.528809	0.00274048
4569.23	0.529175	1.37634e-05
4573.55	0.52887	4.82178e-06
4577.93	0.528015	0.000851135
4582.25	0.528687	1.54114e-05
4586.57	0.529449	-4.88281e-07
4590.95	0.528442	0.000408569
4595.27	0.527985	2.0874e-05
4599.59	0.529541	5.79834e-07
4603.97	0.529724	0.000226807
4608.29	0.529266	9.27734e-06
4612.61	0.528015	9.765625E-06
4616.99	0.529083	0.000144562
4621.31	0.528656	1.35193e-05
4625.63	0.528107	1.19934e-05
4630.01	0.528046	0.00010849
4634.33	0.52829	1.59607e-05
4638.65	0.52948	1.19019e-06
4643.03	0.529449	7.34863e-05
4647.35	0.529633	7.08008e-06
4651.67	0.529114	1.92261e-06
4656.05	0.528839	6.04858e-05
4660.37	0.528931	1.19019e-05
4664.69	0.528107	1.03149e-05
4669.07	0.528015	5.5542e-05
4673.39	0.529022	8.48389e-06
4677.71	0.528595	1.03455e-05
4682.09	0.528107	4.84924e-05
4686.41	0.527954	1.63574e-05
4690.75	-0.698242	-0.0241089
4695.11	0.5289	3.94897e-05
4699.43	0.529449	6.34766e-06
4703.77	-0.699036	-0.0202484
4708.13	0.528412	3.66821e-05
4712.45	0.529755	1.92261e-06
4716.79	-0.697815	-0.0174805
4721.15	0.528229	3.26233e-05
4725.47	0.528259	1.23291e-05
4729.81	-0.698303	-0.0153534
4734.17	0.529724	2.20947e-05
4738.49	0.528687	7.04956e-06
4742.85	-0.00020752	0.00779419
4747.19	0.529785	1.83105e-05
4751.51	0.527985	1.26953e-05
4755.87	-0.000613403	0.0063092
4760.21	0.529175	2.23999e-05
4764.53	0.529327	5.00488e-06
4768.89	0.000808716	0.00516449
4773.23	0.52832	2.37122e-05
4777.55	0.529663	1.43433e-06
4781.91	-6.40869e-05	0.0042157
4786.25	0.529083	1.89209e-05
4790.57	0.529633	2.10571e-06
4794.95	0.52887	0.0167206
4799.27	0.528046	2.5116e-05
4803.59	0.529083	7.56836e-06
4807.97	0.529053	0.0133759
4812.29	0.529602	1.28784e-05
4816.61	0.528839	8.14819e-06
4820.99	0.528137	0.00977783
4825.31	0.528564	1.6449e-05
4829.63	0.528076	1.17493e-05
4834.01	0.528412	0.00256683
4838.33	0.52832	1.95618e-05
4842.65	0.529205	3.90625e-06
4847.03	0.529602	0.000875854
4851.35	0.528015	1.92871e-05
4855.67	0.52951	6.71387e-07
4860.05	0.529205	0.000436218
4864.37	0.528534	1.57471e-05
4868.69	0.52951	1.09863e-06
4873.07	0.528198	0.000256744
4877.39	0.529724	6.04248e-06
4881.71	0.529541	8.54492e-07
4886.09	0.528229	0.000165497
4890.41	0.528839	1.27563e-05
4894.73	0.52951	3.66211e-07
4899.11	0.529694	0.000104797
4903.43	0.528259	1.59607e-05
4907.75	0.528778	4.85229e-06
4912.13	0.529205	8.10242e-05
4916.45	0.529327	7.65991e-06
4920.77	0.529297	2.38037e-06
4925.15	0.528381	6.82678e-05
4929.47	0.528259	1.4801e-05
4933.79	0.528412	8.02612e-06
4938.17	0.529205	4.99878e-05
4942.49	0.528687	1.06506e-05
4946.81	0.528595	6.40869e-06
4951.19	0.528717	4.47083e-05
4955.51	0.528381	1.42822e-05
4959.85	-0.697327	-0.0240387
4964.21	0.529572	3.47595e-05
4968.53	0.528351	1.44043e-05
4972.87	-0.698029	-0.0202759
4977.23	0.528198	3.89099e-05
4981.55	0.52948	4.08936e-06
4985.89	-0.699127	-0.0175415
4990.25	0.52887	3.09143e-05
4994.57	0.529572	3.63159e-06
4998.91	-0.697754	-0.0154388
5003.27	0.529175	2.60925e-05
5007.59	0.529083	9.09424e-06
5011.95	-0.000891113	0.00779724
5016.29	0.529205	2.26135e-05
5020.61	0.528717	8.72803e-06
5024.97	0.000933838	0.00633057
5029.31	0.528351	2.92969e-05
5033.63	0.529694	1.98364e-06
5037.99	0.00100403	0.00518494
5042.33	0.529633	1.6571e-05
5046.65	0.528015	1.26343e-05
5051.01	0.000326538	0.00423187
5055.35	0.528076	2.50244e-05
5059.67	0.529694	1.00708e-06
5064.05	0.528992	0.0168762
5068.37	0.529572	1.42517e-05
5072.69	0.529053	5.49316e-06
5077.07	0.529053	0.0135376
5081.39	0.528229	2.13013e-05
5085.71	0.529053	2.59399e-06
5090.09	0.528381	0.0101349
5094.41	0.529053	1.69678e-05
5098.73	0.529053	2.44141e-06
5103.11	0.529144	0.00324127
5107.43	0.529755	1.08948e-05
5111.75	0.528229	1.20239e-05
5116.13	0.528809	0.00105194
5120.45	0.528961	1.59302e-05
5124.77	0.528442	1.04675e-05
5129.15	0.529602	0.000524597
5133.47	0.529022	1.297e-05
5137.79	0.52951	1.52588e-07
5142.17	0.529663	0.000299316
5146.49	0.528351	1.74561e-05
5150.81	0.528503	1.10168e-05
5155.19	0.528076	0.000199829
5159.51	0.528015	1.84631e-05
5163.83	0.529694	2.96021e-06
5168.21	0.528198	0.000134277
5172.53	0.529022	9.70459e-06
5176.85	0.52832	1.01929e-05
5181.23	0.528564	9.48486e-05
5185.55	0.528137	1.60828e-05
5189.87	0.528595	8.23975e-06
5194.25	0.528564	7.63245e-05
5198.57	0.529327	7.38525e-06
5202.89	0.529327	1.09863e-06
5207.27	0.528107	6.60095e-05
5211.59	0.529785	5.09644e-06
5215.91	0.528168	9.61304e-06
5220.29	0.528961	4.9469e-05
5224.61	0.527985	1.60217e-05
5228.95	-0.698029	-0.0242798
5233.31	0.528015	4.90112e-05
5237.63	0.529663	3.17383e-06
5241.97	-0.697449	-0.020575
5246.33	0.52948	3.28979e-05
5250.65	0.529358	6.2561e-06
5254.99	-0.698303	-0.0178711
5259.35	0.528717	3.49426e-05
5263.67	0.528534	1.12e-05
5268.01	-0.699158	-0.0157684
5272.37	0.528717	3.18298e-05
5276.69	0.527985	1.25732e-05
5281.05	-0.000949097	0.00754089
5285.39	0.529297	2.36206e-05
5289.71	0.529144	5.49316e-06
5294.07	-0.000564575	0.00612915
5298.41	0.52829	2.90222e-05
5302.73	0.528778	7.56836e-06
5307.09	-0.000753784	0.0050351
5311.43	0.528107	2.8717e-05
5315.75	0.529572	2.74658e-06
5320.11	0.000439453	0.00411499
5324.45	0.529633	1.44348e-05
5328.77	0.528259	1.1261e-05
5333.15	0.527405	0.0169495
5337.47	0.528137	2.46277e-05
5341.79	0.529602	2.56348e-06
5346.17	0.528961	0.0137146
5350.49	0.527954	2.43835e-05
5354.81	0.528168	1.16272e-05
5359.19	0.527771	0.010556
5363.51	0.528473	2.03552e-05
5367.83	0.529388	2.47192e-06
5372.21	0.528595	0.00466705
5376.53	0.528259	1.90735e-05
5380.85	0.52948	2.04468e-06
5385.23	0.529419	0.00127106
5389.55	0.528229	1.93787e-05
5393.87	0.528168	1.12305e-05
5398.25	0.528412	0.00064209
5402.57	0.529419	1.06201e-05
5406.89	0.529083	4.97437e-06
5411.27	0.529205	0.000367157
5415.59	0.52887	1.25427e-05
5419.91	0.528168	9.73511e-06
5424.29	0.528778	0.000236786
5428.61	0.528381	1.61743e-05
5432.93	0.529663	1.25122e-06
5437.31	0.52951	0.000152649
5441.63	0.528046	1.80969e-05
5445.95	0.529266	-7.93457e-07
5450.33	0.528503	0.000116943
5452.51	0.529266	3.44849e-06