File: Edgar/20240529/20240529/electrodeposition_pulsed_potential_20240529_A/pulses_0_to_1000.txt
Time (s)	WE(1).Potential (V)	WE(1).Current (A)
183.233	-0.699768	-0.00219788
187.593	0.528412	2.89917e-06
191.913	0.529724	-7.35474e-06
196.253	-0.700287	-0.0017691
200.613	0.528381	5.34058e-06
204.933	0.529602	-4.5166e-06
209.273	-0.698853	-0.00194244
213.633	0.529663	2.38037e-06
217.953	0.529633	-3.44849e-06
222.293	-0.699432	-0.00218842
226.653	0.529205	3.41797e-06
230.973	0.528107	8.45337e-06
235.333	-0.000259399	0.000645447
239.673	0.528076	1.40381e-05
243.993	0.529846	-2.34985e-06
248.353	-0.000628662	0.000199158
252.693	0.529388	6.19507e-06
257.013	0.528748	1.67847e-06
261.373	0.000915527	8.76465e-05
265.713	0.529297	3.63159e-06
270.033	0.529572	-2.28882e-06
274.393	0.000683594	4.27246e-05
278.733	0.528412	8.42285e-06
283.053	0.529724	-3.96729e-06
287.433	0.527924	0.00013797
291.753	0.529419	1.0376e-06
296.073	0.528107	4.02832e-06
300.453	0.529419	5.82581e-05
304.773	0.528961	2.83813e-06
309.093	0.529236	-2.96021e-06
313.473	0.52832	4.2572e-05
317.793	0.528473	4.94385e-06
322.113	0.528381	3.8147e-06
326.493	0.528656	2.89001e-05
330.813	0.527832	8.27026e-06
335.133	0.527985	5.79834e-06
339.513	0.528351	2.34375e-05
343.833	0.52832	4.54712e-06
348.153	0.529297	-3.87573e-06
352.533	0.52948	1.08948e-05
356.853	0.528442	5.06592e-06
361.173	0.527954	5.09644e-06
365.553	0.529205	9.91821e-06
369.873	0.529541	-5.0354e-06
374.193	0.528473	1.64795e-06
378.573	0.529114	5.43213e-06
382.893	0.527985	6.98853e-06
387.213	0.529694	-7.17163e-06
391.593	0.529755	2.47192e-06
395.913	0.528687	7.93457e-07
400.233	0.528931	-2.41089e-06
404.613	0.527863	1.297e-05
408.933	0.529572	-2.96021e-06
413.253	0.528351	2.13623e-06
417.633	0.528687	5.98145e-06
421.953	0.528351	3.08228e-06
426.273	0.528107	-9.15527e-08
430.653	0.528015	1.04065e-05
434.973	0.529266	-3.60107e-06
439.293	0.527924	5.40161e-06
443.673	0.529602	1.86157e-06
447.993	0.529022	-4.85229e-06
452.333	-0.698425	-0.00996704
456.693	0.528381	6.04248e-06
461.013	0.528992	7.01904e-07
465.353	-0.699432	-0.00654053
469.713	0.528076	8.75854e-06
474.033	0.527893	5.00488e-06
478.373	-0.698395	-0.00510559
482.733	0.528076	1.01929e-05
487.053	0.527893	6.073e-06
491.393	-0.698914	-0.00435333
495.753	0.529449	-1.28174e-06
500.073	0.528931	-3.84521e-06
504.433	0.000750732	0.00858154
508.773	0.529144	6.10352e-08
513.093	0.52829	3.26538e-06
517.453	0.00057373	0.00391022
521.793	0.528046	6.71387e-06
526.113	0.528107	6.28662e-06
530.473	0.000418091	0.0012912
534.813	0.52832	6.89697e-06
539.133	0.529694	-6.50024e-06
543.493	0.000506592	0.000375061
547.833	0.528503	3.60107e-06
552.153	0.527863	7.59888e-06
556.533	0.528198	0.000242523
560.853	0.527954	8.42285e-06
565.173	0.528229	4.79126e-06
569.553	0.528015	9.2041e-05
573.873	0.528107	8.23975e-06
578.193	0.528809	-3.05176e-06
582.573	0.528503	5.26123e-05
586.893	0.529694	-5.00488e-06
591.213	0.528656	1.49536e-06
595.593	0.528625	3.55835e-05
599.913	0.528442	4.27246e-06
604.233	0.529297	-4.18091e-06
608.613	0.527924	3.35388e-05
612.933	0.529785	-4.02832e-06
617.253	0.528412	5.43213e-06
621.633	0.528015	2.66113e-05
625.953	0.529053	-6.71387e-07
630.273	0.528931	-2.59399e-06
634.653	0.529572	1.24512e-05
638.973	0.529236	-3.05176e-06
643.293	0.529694	-5.70679e-06
647.673	0.528259	1.96533e-05
651.993	0.52887	2.44141e-07
656.313	0.527832	5.70679e-06
660.693	0.527863	1.79138e-05
665.013	0.528503	4.08936e-06
669.333	0.52887	-1.25122e-06
673.713	0.529266	7.96509e-06
678.033	0.528137	5.27954e-06
682.353	0.527954	3.32642e-06
686.733	0.528961	1.11389e-05
691.053	0.529144	-2.41089e-06
695.373	0.529114	-2.7771e-06
699.753	0.527954	1.54419e-05
704.073	0.529236	-2.68555e-06
708.393	0.528778	-6.71387e-07
712.773	0.527985	1.34888e-05
717.093	0.529053	1.15967e-06
721.433	-0.699463	-0.012561
725.793	0.529144	3.93677e-06
730.113	0.529572	-4.69971e-06
734.453	-0.699829	-0.00845947
738.813	0.528198	1.18408e-05
743.133	0.529419	-2.53296e-06
747.473	-0.699646	-0.00648315
751.833	0.528046	1.12305e-05
756.153	0.527985	5.37109e-06
760.493	-0.698273	-0.00540161
764.853	0.529724	-5.79834e-07
769.173	0.527863	4.79126e-06
773.533	0.000793457	0.0098877
777.873	0.529663	2.44141e-07
782.193	0.529358	-2.89917e-06
786.553	0.000970459	0.00570892
790.894	0.528656	3.84521e-06
795.214	0.527893	6.89697e-06
799.574	-2.13623e-05	0.00295349
803.914	0.529053	4.42505e-06
808.234	0.529785	-6.50024e-06
812.594	-3.05176e-05	0.00129242
816.934	0.528748	4.54712e-06
821.254	0.527832	8.3313e-06
825.634	0.529724	0.000416565
829.954	0.528503	6.40869e-06
834.274	0.528107	6.83594e-06
838.654	0.5289	0.000137512
842.974	0.52948	-2.7771e-06
847.294	0.529724	-4.42505e-06
851.674	0.528015	8.24585e-05
855.994	0.528137	9.18579e-06
860.314	0.529602	-5.34058e-06
864.694	0.529602	4.71191e-05
869.014	0.527893	1.04065e-05
873.334	0.529755	-5.06592e-06
877.714	0.529541	3.48816e-05
882.034	0.528564	5.52368e-06
886.354	0.528687	2.53296e-06
890.734	0.528168	3.7323e-05
895.054	0.527893	9.97925e-06
899.374	0.529083	-2.44141e-06
903.754	0.529053	2.44751e-05
908.074	0.528839	2.86865e-06
912.394	0.528534	1.25122e-06
916.774	0.529022	1.99585e-05
921.094	0.528595	5.46265e-06
925.414	0.529236	-4.11987e-06
929.794	0.528473	2.2644e-05
934.114	0.528351	6.37817e-06
938.434	0.529358	-3.87573e-06
942.814	0.528931	1.6449e-05
947.134	0.529175	2.19727e-06
951.454	0.529419	-3.66211e-06
955.834	0.528015	1.99585e-05
960.154	0.528076	7.35474e-06
964.474	0.52951	-5.43213e-06
968.854	0.5289	1.51978e-05
973.174	0.529175	-1.2207e-07
977.494	0.529602	-3.84521e-06
981.874	0.528168	1.56555e-05
986.194	0.528046	4.36401e-06
990.534	-0.698792	-0.0141388
994.894	0.529266	7.8125e-06
999.214	0.528809	-4.27246e-07
1003.55	-0.698975	-0.00974121
1007.91	0.52887	8.88062e-06
1012.23	0.529053	-1.95313e-06
1016.57	-0.698517	-0.00748108
1020.93	0.529175	7.50732e-06
1025.25	0.528809	3.11279e-06
1029.59	-0.699005	-0.006171875
1033.95	0.528564	1.06201e-05
1038.27	0.52948	-2.96021e-06
1042.63	-0.000595093	0.0104095
1046.97	0.528778	7.35474e-06
1051.29	0.529449	-2.22778e-06
1055.65	0.000421143	0.00647736
1059.99	0.52951	2.22778e-06
1064.31	0.528229	6.74438e-06
1068.67	0.00110779	0.00389893
1073.01	0.528168	1.23291e-05
1077.33	0.527985	8.5144e-06
1081.69	9.76562e-05	0.00208008
1086.03	0.529602	4.60815e-06
1090.35	0.529388	-1.89209e-06
1094.73	0.529205	0.000707397
1099.05	0.529449	3.14331e-06
1103.37	0.528015	6.83594e-06
1107.75	0.529633	0.000180725
1112.07	0.527985	1.26648e-05
1116.39	0.527863	7.14111e-06
1120.77	0.529297	9.95483e-05
1125.09	0.528198	1.2085e-05
1129.41	0.529266	-1.28174e-06
1133.79	0.529388	6.63147e-05
1138.11	0.529419	0
1142.43	0.528717	1.5564e-06
1146.81	0.527954	5.63354e-05
1151.13	0.529694	-9.15527e-08
1155.45	0.528748	4.88281e-07
1159.83	0.527954	4.84314e-05
1164.15	0.529388	-3.05176e-08
1168.47	0.528687	4.57764e-06
1172.85	0.527893	3.97644e-05
1177.17	0.528137	9.64355e-06
1181.49	0.528107	7.62939e-06
1185.87	0.528931	2.87476e-05
1190.19	0.527832	9.73511e-06
1194.51	0.527924	7.44629e-06
1198.89	0.52887	2.49023e-05
1203.21	0.529816	-2.7771e-06
1207.53	0.529694	-3.9978e-06
1211.91	0.529633	1.52283e-05
1216.23	0.528656	4.73022e-06
1220.55	0.528168	4.5166e-06
1224.93	0.527954	2.41089e-05
1229.25	0.529633	-2.44141e-06
1233.57	0.528961	8.8501e-07
1237.95	0.528015	2.02637e-05
1242.27	0.527893	8.60596e-06
1246.59	0.529694	-4.85229e-06
1250.97	0.529572	9.00269e-06
1255.29	0.527954	8.75854e-06
1259.63	-0.699432	-0.0152618
1263.99	0.529633	7.53784e-06
1268.31	0.528503	6.95801e-06
1272.65	-0.699463	-0.0107971
1277.01	0.527954	1.9104e-05
1281.33	0.527985	8.72803e-06
1285.67	-0.69873	-0.0083374
1290.03	0.52948	1.01929e-05
1294.35	0.528381	5.40161e-06
1298.69	-0.698364	-0.0068689
1303.05	0.528687	1.32141e-05
1307.37	0.529358	-1.46484e-06
1311.73	-0.000396729	0.0106171
1316.07	0.528168	1.31531e-05
1320.39	0.528137	7.90405e-06
1324.75	-0.000241089	0.00690857
1329.09	0.528564	1.33057e-05
1333.41	0.529175	-6.10352e-08
1337.77	0.000970459	0.00447479
1342.11	0.528046	1.46484e-05
1346.43	0.52951	-2.71606e-06
1350.79	-0.000305176	0.00265411
1355.13	0.528717	9.82666e-06
1359.45	0.528931	5.49316e-07
1363.83	0.528473	0.00134186
1368.15	0.529419	4.60815e-06
1372.47	0.529663	-2.38037e-06
1376.85	0.529694	0.000247101
1381.17	0.528076	1.26953e-05
1385.49	0.528107	6.28662e-06
1389.87	0.528748	0.000126831
1394.19	0.529053	1.00098e-05
1398.51	0.528748	-1.2207e-07
1402.89	0.527924	9.13391e-05
1407.21	0.528198	1.3031e-05
1411.53	0.529755	-3.9978e-06
1415.91	0.529541	5.79529e-05
1420.23	0.528076	1.14441e-05
1424.55	0.529419	7.01904e-07
1428.93	0.527985	5.69153e-05
1433.25	0.527954	1.14136e-05
1437.57	0.529724	-2.65503e-06
1441.95	0.528961	3.89709e-05
1446.27	0.529419	8.54492e-07
1450.59	0.528564	4.85229e-06
1454.97	0.528839	3.51868e-05
1459.29	0.527954	1.28174e-05
1463.61	0.528778	-1.52588e-07
1467.99	0.528046	3.51562e-05
1472.31	0.529663	-2.28882e-06
1476.63	0.527954	8.08716e-06
1481.01	0.528168	3.42712e-05
1483.19	0.529053	-1.58691e-06