File: Edgar/20240529/20240529/electrodeposition_pulsed_potential_20240529_A/pulses_2000_to_3000.txt
Time (s)	WE(1).Potential (V)	WE(1).Current (A)
2829.48	-0.698242	-0.0212891
2833.84	0.529449	2.21252e-05
2838.16	0.52948	3.63159e-06
2842.5	-0.697754	-0.0168152
2846.86	0.528229	2.8656e-05
2851.18	0.529236	3.96729e-06
2855.52	-0.698456	-0.0139923
2859.88	0.529114	2.03857e-05
2864.2	0.528381	9.552e-06
2868.54	-0.699677	-0.0118805
2872.9	0.529572	1.60217e-05
2877.22	0.529297	2.59399e-06
2881.58	0.000476074	0.00957947
2885.92	0.528381	2.2644e-05
2890.24	0.5289	2.0752e-06
2894.6	-0.000671387	0.00736176
2898.94	0.527832	2.48718e-05
2903.26	0.529388	1.15967e-06
2907.62	9.15527e-05	0.00574707
2911.96	0.52948	1.13525e-05
2916.28	0.529297	3.08228e-06
2920.64	0.000942993	0.00444611
2924.98	0.529297	1.33057e-05
2929.3	0.528961	3.63159e-06
2933.68	0.527313	0.0147217
2938	0.529449	1.16577e-05
2942.32	0.527985	1.08948e-05
2946.7	0.52832	0.00964966
2951.02	0.529388	9.3689e-06
2955.34	0.528961	3.72314e-06
2959.72	0.529663	0.00132019
2964.04	0.528564	1.71814e-05
2968.36	0.528015	8.48389e-06
2972.74	0.529572	0.000380615
2977.06	0.529572	6.53076e-06
2981.38	0.52951	3.35693e-07
2985.76	0.528107	0.000199677
2990.08	0.528992	1.10168e-05
2994.4	0.528015	1.1261e-05
2998.78	0.529572	0.000122498
3003.1	0.527924	1.67236e-05
3007.42	0.529755	-9.76562e-07
3011.8	0.52951	8.6853e-05
3016.12	0.529358	8.54492e-06
3020.44	0.529572	-5.18799e-07
3024.82	0.529602	6.49719e-05
3029.14	0.528259	1.48926e-05
3033.46	0.528046	1.01013e-05
3037.84	0.529175	5.70068e-05
3042.16	0.52832	1.28784e-05
3046.48	0.529266	1.95313e-06
3050.86	0.528625	5.27954e-05
3055.18	0.528107	1.33667e-05
3059.5	0.528687	5.98145e-06
3063.88	0.528015	4.81567e-05
3068.2	0.528259	1.2085e-05
3072.52	0.529022	2.04468e-06
3076.9	0.528931	3.64685e-05
3081.22	0.528961	8.97217e-06
3085.54	0.528778	4.94385e-06
3089.92	0.529633	2.79236e-05
3094.24	0.529175	5.49316e-06
3098.58	-0.699005	-0.0220093
3102.94	0.527924	3.59192e-05
3107.26	0.52951	3.57056e-06
3111.6	-0.699158	-0.0175842
3115.96	0.528687	2.90833e-05
3120.28	0.52887	4.21143e-06
3124.62	-0.698273	-0.0147491
3128.98	0.529633	2.00806e-05
3133.3	0.527985	1.35803e-05
3137.64	-0.699127	-0.0125977
3142	0.529541	1.73035e-05
3146.32	0.529205	5.95093e-06
3150.68	-0.000750732	0.00928955
3155.02	0.528168	2.55127e-05
3159.34	0.528046	1.297e-05
3163.7	-0.00032959	0.00722321
3168.04	0.528168	2.48413e-05
3172.36	0.529816	1.58691e-06
3176.72	0.000442505	0.00570129
3181.06	0.529297	1.62659e-05
3185.38	0.528015	1.21765e-05
3189.74	0.000402832	0.00448395
3194.08	0.529724	9.52148e-06
3198.4	0.529236	2.44141e-06
3202.78	0.527557	0.0153564
3207.1	0.529053	1.43127e-05
3211.42	0.528961	6.37817e-06
3215.8	0.529205	0.0108734
3220.12	0.528839	1.14441e-05
3224.44	0.529633	7.62939e-07
3228.82	0.528046	0.00287476
3233.14	0.528076	1.89819e-05
3237.46	0.529297	2.0752e-06
3241.84	0.528778	0.000566406
3246.16	0.529419	1.0376e-05
3250.48	0.52951	1.64795e-06
3254.86	0.528473	0.000254761
3259.18	0.529541	6.68335e-06
3263.5	0.529114	3.11279e-06
3267.88	0.529449	0.000148102
3272.2	0.528381	1.474e-05
3276.52	0.529633	-1.43433e-06
3280.9	0.529388	0.000100616
3285.22	0.529327	7.50732e-06
3289.54	0.529602	-2.89917e-06
3293.92	0.527954	8.55408e-05
3298.24	0.528412	1.60217e-05
3302.56	0.528076	7.1106e-06
3306.94	0.528687	6.2439e-05
3311.26	0.529175	8.42285e-06
3315.58	0.529175	2.47192e-06
3319.96	0.529327	5.06287e-05
3324.28	0.528351	1.34888e-05
3328.6	0.52829	5.67627e-06
3332.98	0.529663	3.95508e-05
3337.3	0.528992	7.56836e-06
3341.62	0.528259	7.72095e-06
3346	0.529297	3.42407e-05
3350.32	0.528046	1.74561e-05
3354.64	0.528107	1.23901e-05
3359.02	0.529541	2.98157e-05
3363.34	0.528656	9.85718e-06
3367.68	-0.697876	-0.0226746
3372.04	0.52829	3.54309e-05
3376.36	0.528503	1.12915e-05
3380.7	-0.698059	-0.0183167
3385.06	0.528992	2.75269e-05
3389.38	0.528595	1.10168e-05
3393.72	-0.698334	-0.0154572
3398.08	0.528656	2.60925e-05
3402.4	0.529297	4.24194e-06
3406.74	-0.698273	-0.0133179
3411.1	0.529541	1.85852e-05
3415.42	0.52887	7.93457e-06
3419.78	-0.000708008	0.00894775
3424.12	0.528961	1.96838e-05
3428.44	0.529541	3.84521e-06
3432.8	-0.000326538	0.00707428
3437.14	0.528931	1.77307e-05
3441.46	0.529663	1.37329e-06
3445.82	0.000927734	0.00565277
3450.16	0.529663	1.27563e-05
3454.48	0.52829	1.00403e-05
3458.84	0.00108643	0.00449921
3463.18	0.527954	2.35596e-05
3467.5	0.528564	8.91113e-06
3471.88	0.527893	0.0158264
3476.2	0.529175	1.44958e-05
3480.52	0.527985	1.24817e-05
3484.9	0.527588	0.0117493
3489.22	0.5289	1.31836e-05
3493.54	0.527863	1.3031e-05
3497.92	0.529358	0.00607483
3502.24	0.527893	2.21558e-05
3506.56	0.528076	1.10168e-05
3510.94	0.529114	0.000843506
3515.26	0.528015	1.88599e-05
3519.58	0.529358	2.0752e-06
3523.96	0.529175	0.000333374
3528.28	0.529053	1.24817e-05
3532.6	0.5289	6.2561e-06
3536.98	0.529633	0.000177185
3541.3	0.529358	6.65283e-06
3545.62	0.528656	7.56836e-06
3550	0.529297	0.000116425
3554.32	0.528687	1.27258e-05
3558.64	0.529114	2.65503e-06
3563.02	0.529388	8.45642e-05
3567.34	0.528564	1.25732e-05
3571.66	0.528992	7.2937e-06
3576.04	0.52951	6.22864e-05
3580.36	0.527985	1.67847e-05
3584.68	0.529572	-7.01904e-07
3589.06	0.529297	5.35583e-05
3593.38	0.528076	1.5686e-05
3597.7	0.528534	4.3335e-06
3602.08	0.528259	5.42297e-05
3606.4	0.528473	1.14136e-05
3610.72	0.528351	6.19507e-06
3615.1	0.529175	3.84521e-05
3619.42	0.528809	8.78906e-06
3623.74	0.528107	1.09253e-05
3628.12	0.529572	3.10059e-05
3632.44	0.52948	3.63159e-06
3636.78	-0.69751	-0.0230774
3641.14	0.528961	3.32947e-05
3645.46	0.528046	1.44653e-05
3649.8	-0.698578	-0.0188202
3654.16	0.528931	2.771e-05
3658.48	0.528687	9.73511e-06
3662.82	-0.697845	-0.0159607
3667.18	0.529602	2.13928e-05
3671.5	0.529297	2.50244e-06
3675.84	-0.699249	-0.0137909
3680.2	0.529327	2.31934e-05
3684.52	0.528442	9.94873e-06
3688.88	-0.00109253	0.00874023
3693.22	0.528107	2.98462e-05
3697.54	0.528687	9.24683e-06
3701.9	0.000820923	0.00695465
3706.24	0.529175	1.85242e-05
3710.56	0.528137	1.35193e-05
3714.92	-0.000378418	0.00561005
3719.26	0.528015	2.46277e-05
3723.58	0.528137	1.18713e-05
3727.94	6.71387e-05	0.00448273
3732.28	0.5289	1.52893e-05
3736.6	0.528198	1.11084e-05
3740.98	0.528656	0.0160919
3745.3	0.528778	1.651e-05
3749.62	0.529572	3.54004e-06
3754	0.529114	0.0121948
3758.32	0.529449	1.15662e-05
3762.64	0.528015	1.31226e-05
3767.02	0.528198	0.00716309
3771.34	0.528809	1.45569e-05
3775.66	0.528809	5.79834e-06
3780.04	0.528351	0.00107971
3784.36	0.529205	9.12476e-06
3788.68	0.528534	7.47681e-06
3793.06	0.529449	0.000405304
3797.38	0.52951	8.30078e-06
3801.7	0.527832	1.16882e-05
3806.08	0.528381	0.000220245
3810.4	0.528503	1.47705e-05
3814.72	0.528168	9.765625E-06
3819.1	0.529602	0.00013028
3823.42	0.528473	1.29089e-05
3827.74	0.528046	9.94873e-06
3832.12	0.528534	9.74426e-05
3836.44	0.528381	1.41602e-05
3840.76	0.527954	1.03455e-05
3845.14	0.528534	7.52563e-05
3849.46	0.528442	1.37634e-05
3853.78	0.528503	7.47681e-06
3858.16	0.528198	6.5155e-05
3862.48	0.52951	5.31006e-06
3866.8	0.529205	2.56348e-06
3871.18	0.52948	4.5929e-05
3875.5	0.528137	1.59912e-05
3879.82	0.528778	5.24902e-06
3884.2	0.529114	4.13513e-05
3888.52	0.52948	6.43921e-06
3892.84	0.528809	3.84521e-06
3897.22	0.528076	4.41284e-05
3901.54	0.529266	4.76074e-06
3905.88	-0.697632	-0.0233276
3910.24	0.528992	3.35999e-05
3914.56	0.528076	1.33667e-05
3918.9	-0.69754	-0.0191925
3923.26	0.529663	2.47192e-05
3927.58	0.529022	8.42285e-06
3931.92	-0.697601	-0.0163635
3936.28	0.528168	3.15857e-05
3940.6	0.529572	2.89917e-06
3944.94	-0.699097	-0.0141968
3949.3	0.528687	2.80151e-05
3953.62	0.528015	1.3855e-05
3957.98	0.000299072	0.00845337
3962.32	0.528839	2.21863e-05
3966.64	0.529633	2.19727e-06
3971	0.000473022	0.00676727
3975.34	0.528534	2.44446e-05
3979.66	0.529572	1.37329e-06
3984.02	1.83105e-05	0.00548737
3988.36	0.529175	1.72424e-05
3992.68	0.528381	8.08716e-06
3997.04	0.000534058	0.00441803
4001.38	0.528748	1.80054e-05
4005.7	0.52948	4.88281e-07
4010.08	0.528778	0.016333
4014.4	0.528076	2.28271e-05
4018.72	0.529297	2.92969e-06
4023.1	0.528656	0.0126526
4027.42	0.528809	1.63879e-05
4031.74	0.529358	1.06812e-06
4036.12	0.529297	0.00847473
4040.44	0.529541	1.00708e-05
4044.76	0.528992	6.28662e-06
4049.14	0.529633	0.00155243
4053.46	0.529633	9.52148e-06
4057.78	0.528229	1.08948e-05
4062.16	0.529144	0.000550537
4066.48	0.529663	7.56836e-06
4070.8	0.528564	7.90405e-06
4075.18	0.528015	0.000278107
4079.5	0.529388	7.78198e-06
4083.82	0.529205	2.7771e-06
4088.2	0.528198	0.000167603
4092.52	0.529419	8.14819e-06
4096.84	0.528107	1.08337e-05
4101.22	0.528748	0.000112762
4105.54	0.528992	9.18579e-06
4109.86	0.528931	8.02612e-06
4114.24	0.529724	7.62939e-05
4118.56	0.528046	1.69678e-05
4122.88	0.528107	1.12e-05
4127.26	0.528046	7.24487e-05
4129.44	0.529541	-5.79834e-07