File: Edgar/20240607/20240607/electrodeposition_pulsed_potential_20240607_A/data/OCP_1
Time (s)	WE(1).Potential (V)
3.48677	0.478363
4.48677	0.478516
5.48677	0.478699
6.48677	0.478882
7.48677	0.479065
8.48677	0.479248
9.48677	0.479431
10.4868	0.479584
11.4868	0.479767
12.4868	0.47995
13.4868	0.480103
14.4868	0.480286
15.4868	0.480469
16.4868	0.480621
17.4868	0.480804
18.4868	0.480957
19.4868	0.48114
20.4868	0.481323
21.4868	0.481476
22.4868	0.481659
23.4868	0.481812
24.4868	0.481964
25.4868	0.482147
26.4868	0.4823
27.4868	0.482452
28.4868	0.482635
29.4868	0.482788
30.4868	0.482941
31.4868	0.483124
32.4868	0.483276
33.4868	0.483429
34.4868	0.483582
35.4868	0.483734
36.4868	0.483917
37.4868	0.48407
38.4868	0.484222
39.4868	0.484406
40.4868	0.484558
41.4868	0.484741
42.4868	0.484894
43.4868	0.485046
44.4868	0.485199
45.4868	0.485352
46.4868	0.485535
47.4868	0.485687
48.4868	0.48584
49.4868	0.486023
50.4868	0.486176
51.4868	0.486298
52.4868	0.48645
53.4868	0.486603
54.4868	0.486755
55.4868	0.486877
56.4868	0.48703
57.4868	0.487183
58.4868	0.487335
59.4868	0.487457
60.4868	0.48761
61.4868	0.487762
62.4868	0.487885
63.4868	0.488037
64.4868	0.48819
65.4868	0.488342
66.4868	0.488464
67.4868	0.488617
68.4868	0.488739
69.4868	0.488892
70.4868	0.489014
71.4868	0.489166
72.4868	0.489319
73.4868	0.489441
74.4868	0.489594
75.4868	0.489716
76.4868	0.489838
77.4868	0.48999
78.4868	0.490112
79.4868	0.490265
80.4868	0.490387
81.4868	0.49054
82.4868	0.490662
83.4868	0.490784
84.4868	0.490936
85.4868	0.491058
86.4868	0.49118
87.4868	0.491333
88.4868	0.491455
89.4868	0.491577
90.4868	0.491699
91.4868	0.491852
92.4868	0.491974
93.4868	0.492096
94.4868	0.492218
95.4868	0.492371
96.4868	0.492493
97.4868	0.492615
98.4868	0.492737
99.4868	0.492859
100.487	0.493011
101.487	0.493134
102.487	0.493256
103.487	0.493378
104.487	0.4935
105.487	0.493622
106.487	0.493744
107.487	0.493866
108.487	0.493988
109.487	0.49411
110.487	0.494232
111.487	0.494354
112.487	0.494476
113.487	0.494598
114.487	0.49472
115.487	0.494843
116.487	0.494965
117.487	0.495056
118.487	0.495178
119.487	0.49527
120.487	0.495392
121.487	0.495483
122.487	0.495575
123.487	0.495697
124.487	0.495819
125.487	0.495911
126.487	0.496033
127.487	0.496124
128.487	0.496246
129.487	0.496338
130.487	0.49646
131.487	0.496582
132.487	0.496674
133.487	0.496796
134.487	0.496887
135.487	0.497009
136.487	0.497101
137.487	0.497223
138.487	0.497314
139.487	0.497406
140.487	0.497528
141.487	0.49765
142.487	0.497742
143.487	0.497864
144.487	0.497986
145.487	0.498108
146.487	0.498199
147.487	0.498322
148.487	0.498413
149.487	0.498505
150.487	0.498627
151.487	0.498718
152.487	0.49881
153.487	0.498932
154.487	0.499023
155.487	0.499115
156.487	0.499268
157.487	0.499268
158.487	0.499573
159.487	0.499573
160.487	0.499573
161.487	0.499878
162.487	0.499878
163.487	0.499878
164.487	0.500183
165.487	0.500183
166.487	0.500183
167.487	0.500488
168.487	0.500488
169.487	0.500488
170.487	0.500793
171.487	0.500793
172.487	0.500793
173.487	0.501099
174.487	0.501099
175.487	0.501099
176.487	0.501404
177.487	0.501404
178.487	0.501404
179.487	0.501709
180.487	0.501709
181.487	0.501709
182.487	0.502014