File: Edgar/20240607/20240607/electrodeposition_pulsed_potential_20240607_A/data/OCP_3
Time (s)	WE(1).Potential (V)
3728.67	0.027832
3729.67	0.0438354
3730.67	0.0584412
3731.67	0.0718689
3732.67	0.0843201
3733.67	0.0958557
3734.67	0.106567
3735.67	0.116577
3736.67	0.125946
3737.67	0.134644
3738.67	0.142853
3739.67	0.150482
3740.67	0.157684
3741.67	0.16449
3742.67	0.170776
3743.67	0.176788
3744.67	0.182434
3745.67	0.187775
3746.67	0.192902
3747.67	0.197693
3748.67	0.202271
3749.67	0.206604
3750.67	0.210724
3751.67	0.21463
3752.67	0.218384
3753.67	0.221985
3754.67	0.225494
3755.67	0.228821
3756.67	0.232025
3757.67	0.235199
3758.67	0.238098
3759.67	0.240997
3760.67	0.243866
3761.67	0.246674
3762.67	0.249359
3763.67	0.251984
3764.67	0.254456
3765.67	0.256989
3766.67	0.25946
3767.67	0.261871
3768.67	0.264191
3769.67	0.266571
3770.67	0.268799
3771.67	0.271057
3772.67	0.273254
3773.67	0.275452
3774.67	0.277618
3775.67	0.279816
3776.67	0.281891
3777.67	0.284058
3778.67	0.286194
3779.67	0.288269
3780.67	0.290344
3781.67	0.29245
3782.67	0.294495
3783.67	0.296539
3784.67	0.298615
3785.67	0.30072
3786.67	0.302765
3787.67	0.304871
3788.67	0.307068
3789.67	0.309174
3790.67	0.31131
3791.67	0.313507
3792.67	0.315704
3793.67	0.317902
3794.67	0.320129
3795.67	0.322388
3796.67	0.324677
3797.67	0.327057
3798.67	0.329498
3799.67	0.33194
3800.67	0.334412
3801.67	0.336914
3802.67	0.339539
3803.67	0.342102
3804.67	0.344818
3805.67	0.347656
3806.67	0.350494
3807.67	0.353302
3808.67	0.356201
3809.67	0.359192
3810.67	0.362213
3811.67	0.365326
3812.67	0.368439
3813.67	0.371552
3814.67	0.374786
3815.67	0.378052
3816.67	0.381287
3817.67	0.384583
3818.67	0.387909
3819.67	0.391235
3820.67	0.394623
3821.67	0.39798
3822.67	0.401337
3823.67	0.404724
3824.67	0.408051
3825.67	0.411407
3826.67	0.414795
3827.67	0.418152
3828.67	0.42157
3829.67	0.424957
3830.67	0.428345
3831.67	0.431793
3832.67	0.435211
3833.67	0.438599
3834.67	0.442017
3835.67	0.445374
3836.67	0.44873
3837.67	0.452118
3838.67	0.455444
3839.67	0.45874
3840.67	0.462128
3841.67	0.465454
3842.67	0.468719
3843.67	0.471954
3844.67	0.475189
3845.67	0.478271
3846.67	0.481384
3847.67	0.484406
3848.67	0.487305
3849.67	0.490173
3850.67	0.49292
3851.67	0.495605
3852.67	0.498138
3853.67	0.500793
3854.67	0.503235
3855.67	0.505371
3856.67	0.507507
3857.67	0.509644
3858.67	0.511475
3859.67	0.513
3860.67	0.514526
3861.67	0.516052
3862.67	0.517578
3863.67	0.518799
3864.67	0.52002
3865.67	0.520935
3866.67	0.522156
3867.67	0.523071
3868.67	0.523987
3869.67	0.524597
3870.67	0.525208
3871.67	0.526123
3872.67	0.526428
3873.67	0.527039
3874.67	0.527649
3875.67	0.528259
3876.67	0.528564
3877.67	0.52887
3878.67	0.529175
3879.67	0.529785
3880.67	0.529785
3881.67	0.53009
3882.67	0.530396
3883.67	0.530701
3884.67	0.531006
3885.67	0.531006
3886.67	0.531311
3887.67	0.531616
3888.67	0.531616
3889.67	0.531921
3890.67	0.531921
3891.67	0.532227
3892.67	0.532227
3893.67	0.532532
3894.67	0.532532
3895.67	0.532532
3896.67	0.532837
3897.67	0.532837
3898.67	0.533142
3899.67	0.533142
3900.67	0.533447
3901.67	0.533447
3902.67	0.533447
3903.67	0.533752
3904.67	0.533752
3905.67	0.533752
3906.67	0.533752
3907.67	0.534058