File: Edgar/20240515/20240515/EC_measurements/Sample_20240502_C/CV/data/OCP_1
Time (s)	WE(1).Potential (V)
2.08277	-0.540161
3.08277	-0.539246
4.08277	-0.538025
5.08277	-0.536804
6.08277	-0.535889
7.08277	-0.534668
8.08277	-0.533752
9.08277	-0.532532
10.0828	-0.531616
11.0828	-0.530396
12.0828	-0.52948
13.0828	-0.528564
14.0828	-0.527344
15.0828	-0.526428
16.0828	-0.525513
17.0828	-0.524597
18.0828	-0.523682
19.0828	-0.522766
20.0828	-0.521545
21.0828	-0.52063
22.0828	-0.519714
23.0828	-0.518799
24.0828	-0.517883
25.0828	-0.516968
26.0828	-0.516357
27.0828	-0.515442
28.0828	-0.514526
29.0828	-0.513611
30.0828	-0.512695
31.0828	-0.512085
32.0828	-0.511169
33.0828	-0.510254
34.0828	-0.509338
35.0828	-0.508728
36.0828	-0.5078125
37.0828	-0.506897
38.0828	-0.506287
39.0828	-0.505371
40.0828	-0.504761
41.0828	-0.503845
42.0828	-0.503235
43.0828	-0.502319
44.0828	-0.501709
45.0828	-0.500793
46.0828	-0.500183
47.0828	-0.499268
48.0828	-0.498566
49.0828	-0.497833
50.0828	-0.497131
51.0828	-0.496429
52.0828	-0.495697
53.0828	-0.494995
54.0828	-0.494324
55.0828	-0.493622
56.0828	-0.49292
57.0828	-0.492249
58.0828	-0.491577
59.0828	-0.490936
60.0828	-0.490265
61.0828	-0.489624