File: Edgar/20240607/20240607/electrodeposition_pulsed_potential_20240607_E/OCP_3
Time (s)	WE(1).Potential (V)
3726.14	0.0386414
3727.14	0.0559082
3728.14	0.0715332
3729.14	0.0858154
3730.14	0.098938
3731.14	0.111145
3732.14	0.122406
3733.14	0.132843
3734.14	0.142548
3735.14	0.151611
3736.14	0.160034
3737.14	0.167908
3738.14	0.175262
3739.14	0.182129
3740.14	0.188599
3741.14	0.194702
3742.14	0.200409
3743.14	0.205811
3744.14	0.210907
3745.14	0.215759
3746.14	0.220337
3747.14	0.22467
3748.14	0.228882
3749.14	0.23288
3750.14	0.236725
3751.14	0.240417
3752.14	0.243988
3753.14	0.247375
3754.14	0.250732
3755.14	0.253967
3756.14	0.257111
3757.14	0.260132
3758.14	0.263123
3759.14	0.266022
3760.14	0.26889
3761.14	0.271698
3762.14	0.274475
3763.14	0.277191
3764.14	0.279846
3765.14	0.282501
3766.14	0.285126
3767.14	0.28772
3768.14	0.290344
3769.14	0.292908
3770.14	0.295441
3771.14	0.298065
3772.14	0.300629
3773.14	0.303162
3774.14	0.305756
3775.14	0.30838
3776.14	0.311005
3777.14	0.313629
3778.14	0.316284
3779.14	0.31897
3780.14	0.321716
3781.14	0.324493
3782.14	0.327332
3783.14	0.3302
3784.14	0.33316
3785.14	0.336121
3786.14	0.339233
3787.14	0.342407
3788.14	0.345612
3789.14	0.348846
3790.14	0.352203
3791.14	0.355591
3792.14	0.3591
3793.14	0.362671
3794.14	0.366364
3795.14	0.370056
3796.14	0.37381
3797.14	0.377533
3798.14	0.381317
3799.14	0.385162
3800.14	0.388977
3801.14	0.392853
3802.14	0.396698
3803.14	0.400543
3804.14	0.404358
3805.14	0.408173
3806.14	0.411957
3807.14	0.415771
3808.14	0.419678
3809.14	0.423462
3810.14	0.427246
3811.14	0.431061
3812.14	0.434906
3813.14	0.438782
3814.14	0.442688
3815.14	0.446533
3816.14	0.45047
3817.14	0.454437
3818.14	0.458496
3819.14	0.462524
3820.14	0.466614
3821.14	0.470673
3822.14	0.474792
3823.14	0.479095
3824.14	0.483337
3825.14	0.48764
3826.14	0.492004
3827.14	0.496399
3828.14	0.501099
3829.14	0.505371
3830.14	0.509949
3831.14	0.514221
3832.14	0.518799
3833.14	0.523071
3834.14	0.527344
3835.14	0.531616
3836.14	0.535583
3837.14	0.539551
3838.14	0.543518
3839.14	0.54718
3840.14	0.550537
3841.14	0.553894
3842.14	0.557251
3843.14	0.560303
3844.14	0.563049
3845.14	0.565796
3846.14	0.568237
3847.14	0.570679
3848.14	0.572815
3849.14	0.574951
3850.14	0.576782
3851.14	0.578613
3852.14	0.580139
3853.14	0.581665
3854.14	0.583191
3855.14	0.584412
3856.14	0.5859375
3857.14	0.587158
3858.14	0.588074
3859.14	0.589294
3860.14	0.59021
3861.14	0.591125
3862.14	0.592041
3863.14	0.592957
3864.14	0.593872
3865.14	0.594482
3866.14	0.595093
3867.14	0.596008
3868.14	0.596619
3869.14	0.597229
3870.14	0.597839
3871.14	0.59845
3872.14	0.59906
3873.14	0.599365
3874.14	0.599976
3875.14	0.600586
3876.14	0.600891
3877.14	0.601196
3878.14	0.601807
3879.14	0.602112
3880.14	0.602417
3881.14	0.603027
3882.14	0.603333
3883.14	0.603638
3884.14	0.603943
3885.14	0.604248
3886.14	0.604553
3887.14	0.604858
3888.14	0.605164
3889.14	0.605774
3890.14	0.605774
3891.14	0.606079
3892.14	0.606384
3893.14	0.606689
3894.14	0.606995
3895.14	0.6073
3896.14	0.6073
3897.14	0.607605
3898.14	0.60791
3899.14	0.608215
3900.14	0.608215
3901.14	0.608521
3902.14	0.608826
3903.14	0.608826
3904.14	0.609131
3905.14	0.609436