File: Edgar/20240607/20240607/electrodeposition_pulsed_potential_20240607_E/OCP_1
Time (s)	WE(1).Potential (V)
2.07622	0.514832
3.07622	0.515442
4.07622	0.515747
5.07622	0.516052
6.07622	0.516663
7.07622	0.516968
8.07622	0.517578
9.07622	0.517883
10.0762	0.518188
11.0762	0.518799
12.0762	0.519104
13.0762	0.519409
14.0762	0.519714
15.0762	0.520325
16.0762	0.52063
17.0762	0.520935
18.0762	0.52124
19.0762	0.521545
20.0762	0.522156
21.0762	0.522461
22.0762	0.522766
23.0762	0.523071
24.0762	0.523376
25.0762	0.523987
26.0762	0.524292
27.0762	0.524597
28.0762	0.524902
29.0762	0.525208
30.0762	0.525513
31.0762	0.525818
32.0762	0.526123
33.0762	0.526428
34.0762	0.526733
35.0762	0.527039
36.0762	0.527344
37.0762	0.527649
38.0762	0.527954
39.0762	0.528259
40.0762	0.528564
41.0762	0.52887
42.0762	0.529175
43.0762	0.52948
44.0762	0.529785
45.0762	0.53009
46.0762	0.530396
47.0762	0.530701
48.0762	0.531006
49.0762	0.531311
50.0762	0.531616
51.0762	0.531921
52.0762	0.532227
53.0762	0.532532
54.0762	0.532837
55.0762	0.532837
56.0762	0.533142
57.0762	0.533447
58.0762	0.533752
59.0762	0.534058
60.0762	0.534363
61.0762	0.534668
62.0762	0.534668
63.0762	0.534973
64.0762	0.535278
65.0762	0.535583
66.0762	0.535889
67.0762	0.536194
68.0762	0.536194
69.0762	0.536499
70.0762	0.536804
71.0762	0.537109
72.0762	0.537415
73.0762	0.537415
74.0762	0.53772
75.0762	0.538025
76.0762	0.53833
77.0762	0.538635
78.0762	0.538635
79.0762	0.53894
80.0762	0.539246
81.0762	0.539551
82.0762	0.539551
83.0762	0.539856
84.0762	0.540161
85.0762	0.540466
86.0762	0.540466
87.0762	0.540771
88.0762	0.541077
89.0762	0.541382
90.0762	0.541382
91.0762	0.541687
92.0762	0.541992
93.0762	0.541992
94.0762	0.542297
95.0762	0.542603
96.0762	0.542603
97.0762	0.542908
98.0762	0.543213
99.0762	0.543213
100.076	0.543518
101.076	0.543823
102.076	0.544128
103.076	0.544128
104.076	0.544434
105.076	0.544739
106.076	0.544739
107.076	0.545044
108.076	0.545349
109.076	0.545349
110.076	0.545654
111.076	0.545959
112.076	0.545959
113.076	0.546265
114.076	0.54657
115.076	0.54657
116.076	0.546875
117.076	0.54718
118.076	0.54718
119.076	0.547485
120.076	0.547485
121.076	0.547791
122.076	0.547791
123.076	0.548096
124.076	0.548401
125.076	0.548401
126.076	0.548706
127.076	0.548706
128.076	0.549011
129.076	0.549316
130.076	0.549316
131.076	0.549622
132.076	0.549622
133.076	0.549927
134.076	0.549927
135.076	0.550232
136.076	0.550537
137.076	0.550537
138.076	0.550842
139.076	0.550842
140.076	0.551147
141.076	0.551453
142.076	0.551453
143.076	0.551758
144.076	0.551758
145.076	0.552063
146.076	0.552368
147.076	0.552368
148.076	0.552673
149.076	0.552673
150.076	0.552979
151.076	0.553284
152.076	0.553284
153.076	0.553589
154.076	0.553589
155.076	0.553894
156.076	0.553894
157.076	0.554199
158.076	0.554199
159.076	0.554504
160.076	0.55481
161.076	0.55481
162.076	0.555115
163.076	0.555115
164.076	0.55542
165.076	0.55542
166.076	0.555725
167.076	0.55603
168.076	0.55603
169.076	0.556335
170.076	0.556335
171.076	0.556641
172.076	0.556641
173.076	0.556946
174.076	0.557251
175.076	0.557251
176.076	0.557251
177.076	0.557556
178.076	0.557556
179.076	0.557861
180.076	0.558167
181.076	0.558167