File: Edgar/20240607/20240607/electrodeposition_pulsed_potential_20240607_E/pulses_3000_to_4000.txt
Time (s)	WE(1).Potential (V)	WE(1).Current (A)
2307.91	-0.699219	-0.0192841
2310.25	-0.00083313	0.00591248
2312.57	0.00104675	0.00367615
2314.91	-0.697968	-0.0166626
2317.25	0.00039978	0.00607635
2319.57	0.00088501	0.00374268
2321.91	-0.697845	-0.016629
2324.25	-0.000671387	0.00610107
2326.57	0.00113831	0.00376099
2328.91	-0.699371	-0.0166046
2331.25	0.000540161	0.00611023
2333.57	0.00101624	0.0037796
2335.91	-0.699127	-0.0165833
2338.25	-0.000482178	0.00612244
2340.57	0.000332642	0.00379211
2342.91	-0.698792	-0.0165802
2345.25	-0.000378418	0.00612518
2347.57	0.000549316	0.00379425
2349.91	-0.697693	-0.0165771
2352.25	0.0006073	0.00612488
2354.57	0.000753784	0.00380249
2356.91	-0.699097	-0.0165771
2359.25	0.000479126	0.00612488
2361.57	-0.000387573	0.00381897
2363.91	-0.699554	-0.016571
2366.25	0.000930786	0.00611633
2368.57	0.00109253	0.00380859
2370.91	-0.699432	-0.0165527
2373.25	0.00100708	0.00611755
2375.57	0.000167847	0.00381989
2377.91	-0.69754	-0.0165588
2380.25	0.000143433	0.00612183
2382.57	0.000354004	0.00382294
2384.91	-0.697784	-0.0165649
2387.25	0.00111389	0.00611786
2389.57	-3.35693e-05	0.00382233
2391.91	-0.699158	-0.0165497
2394.25	-0.000326538	0.00611786
2396.57	0.000946045	0.00381989
2398.91	-0.697815	-0.0165405
2401.25	0.000909424	0.00611328
2403.57	0.000402832	0.003828125
2405.91	-0.698547	-0.0165375
2408.25	0.000778198	0.0061084
2410.57	-0.000686646	0.00383728
2412.91	-0.699463	-0.0165375
2415.25	-0.000857544	0.00612061
2417.57	0.000967407	0.00382843
2419.91	-0.698761	-0.0165497
2422.25	0.000378418	0.00610535
2424.57	-3.96729e-05	0.00383667
2426.91	-0.699005	-0.0165344
2429.25	0.000805664	0.00610413
2431.57	-0.000796509	0.00384247
2433.91	-0.699371	-0.0165314
2436.25	-0.000296021	0.0061084
2438.57	0.00103455	0.00383331
2440.91	-0.698181	-0.0165375
2443.25	-0.000515747	0.00610992
2445.57	-0.000439453	0.00384338
2447.91	-0.699432	-0.0165253
2450.25	-0.000759888	0.00611084
2452.57	-0.000848389	0.00384796
2454.91	-0.698364	-0.0165253
2457.25	-0.000961304	0.00610748
2459.57	0.00102234	0.00384186
2461.91	-0.697662	-0.0165375
2464.25	-0.000531006	0.00610779
2466.57	-0.000854492	0.00385376
2468.91	-0.699432	-0.0165253
2471.25	-0.000753784	0.00610352
2473.57	-0.00057373	0.00385651
2475.91	-0.69809	-0.0165344
2478.25	0.00100403	0.00609192
2480.57	-0.000747681	0.00386047
2482.91	-0.69928	-0.0165192
2485.25	-0.000640869	0.00609833
2487.57	0.000411987	0.0038559
2489.91	-0.697754	-0.0165405
2492.25	0.000787354	0.00609314
2494.57	0.000741577	0.00385132
2496.91	-0.697998	-0.0165283
2499.25	-0.00071106	0.00609894
2501.57	-9.76562e-05	0.00386505
2503.91	-0.697662	-0.0165497
2506.25	-0.000915527	0.00609955
2508.57	0.00111084	0.0038562
2510.91	-0.697998	-0.0165527
2513.25	0.000305176	0.00609619
2515.57	-0.000445557	0.00386932
2517.91	-0.697998	-0.0165375
2520.25	-0.000476074	0.00609955
2522.57	-0.000390625	0.00387115
2524.91	-0.699493	-0.0165375
2527.25	-0.000750732	0.00609406
2529.57	0.000283813	0.00386658
2531.91	-0.698822	-0.0165253
2534.25	-0.00038147	0.00609619
2536.57	-0.000793457	0.0038736
2538.91	-0.697784	-0.0165466
2541.25	-0.000274658	0.00609253
2543.57	0.000979614	0.00386871
2545.91	-0.699371	-0.0165283
2548.25	0.0003479	0.00608826
2550.57	-0.000311279	0.00388
2552.91	-0.697571	-0.0165375
2555.25	0.000259399	0.00608154
2557.57	0.000195313	0.00387268
2559.91	-0.697418	-0.0165253
2562.25	-7.01904e-05	0.00607941
2564.57	-0.000637817	0.00388336
2566.91	-0.697754	-0.0165314
2569.25	0.000445557	0.0060791
2571.57	-0.000296021	0.00388153
2573.91	-0.698547	-0.0165375
2576.25	-0.000588989	0.00608917
2578.57	-0.000372314	0.00388641
2580.91	-0.698517	-0.0165314
2583.25	-0.000985718	0.00608459
2585.57	0.000881958	0.00388611
2587.91	-0.697815	-0.0165405
2590.25	-0.000326538	0.00608093
2592.57	0.00116882	0.00388824
2594.91	-0.697357	-0.0165283
2597.25	0.000912476	0.00607452
2599.57	-0.000497437	0.00389679
2601.91	-0.698578	-0.0165283
2604.25	0.000961304	0.00606812
2606.57	-0.000241089	0.00389618
2608.91	-0.697662	-0.0165344
2611.25	-0.000793457	0.0060791
2613.57	0.00110474	0.00388855
2615.91	-0.697479	-0.0165222
2618.25	-4.27246e-05	0.00607635
2620.57	0.0010498	0.0038916
2622.91	-0.697815	-0.0165222
2625.25	0.000430298	0.00606812
2627.57	3.66211e-05	0.00390442
2629.91	-0.698212	-0.0165131
2632.25	0.000982666	0.00606323
2634.57	0.00067749	0.00389954
2636.91	-0.698853	-0.0165161
2639.25	-0.000354004	0.006073
2641.57	0.000738525	0.00389679
2643.91	-0.699036	-0.0165253
2646.25	-0.000579834	0.00607422
2648.57	-0.000708008	0.00391113
2650.91	-0.697601	-0.0165314
2653.25	0.000158691	0.00605957
2655.57	7.62939e-05	0.00391327
2657.91	-0.698456	-0.0165314
2660.25	0.000744629	0.00606384
2662.57	0.000753784	0.00390381
2664.91	-0.699097	-0.01651
2667.25	-0.000857544	0.00606506
2669.57	0.000906372	0.00390747
2671.91	-0.697968	-0.0165314
2674.25	-4.88281e-05	0.00606415
2676.57	0.000762939	0.00390747
2678.91	-0.699127	-0.0165039
2681.25	0.000512695	0.00605347
2683.57	0.000970459	0.00391144
2685.91	-0.697845	-0.0165314
2688.25	0.000241089	0.0060553
2690.57	-0.00078125	0.00392303
2692.91	-0.698975	-0.0165131
2695.25	-0.000656128	0.0060614
2697.57	0.00085144	0.00391266
2699.91	-0.697845	-0.0165222
2702.25	0.000860596	0.00605438
2704.57	0.000619507	0.00391632
2706.91	-0.698792	-0.0165222
2709.25	-0.000415039	0.00605774
2711.57	6.10352e-05	0.0039267
2713.91	-0.698975	-0.01651
2716.25	0.000314331	0.00605103
2718.57	-0.000650024	0.00393127
2720.91	-0.699188	-0.01651
2723.25	0.00038147	0.00604248
2725.57	-0.000262451	0.00392548
2727.91	-0.699402	-0.0165192
2730.25	0.000863647	0.00603729
2732.57	0.000415039	0.003927
2734.91	-0.697418	-0.0165253
2737.25	0.000146484	0.00604431
2739.57	-0.000219727	0.00392395
2741.91	-0.69809	-0.0165131
2744.25	-0.000506592	0.00604584
2746.57	0.000741577	0.00391998
2748.91	-0.699371	-0.016507
2751.25	-0.000793457	0.00604218
2753.57	-0.000546265	0.00393463
2755.91	-0.697632	-0.0165192
2758.25	-0.000793457	0.00603638
2760.57	0.000546265	0.00392548
2762.91	-0.699432	-0.0165131
2765.25	-0.000668335	0.00604248
2767.57	0.000869751	0.00392517
2769.91	-0.698212	-0.0165222
2772.25	-0.000598145	0.00603577
2774.57	0.00107117	0.00393066
2776.91	-0.699432	-0.016507
2779.25	0.000613403	0.00602814
2781.57	-0.000741577	0.00394135
2783.91	-0.698578	-0.0165161
2786.25	-0.000646973	0.00603607
2788.57	-0.000161743	0.0039447
2790.91	-0.699249	-0.0165161
2793.25	0.000302124	0.00602386
2795.57	0.00108032	0.00393463
2797.91	-0.697632	-0.0165131
2800.25	0.000692749	0.00602722
2802.57	-0.000579834	0.0039502
2804.91	-0.697693	-0.016507
2807.25	0.000253296	0.00602112
2809.57	0.000778198	0.00394287
2811.91	-0.697723	-0.0165131
2814.25	8.23975e-05	0.00602203
2816.57	-0.000534058	0.00395081
2818.91	-0.697845	-0.0165161
2821.25	-0.000695801	0.00602631
2823.57	-0.000335693	0.00394806
2825.91	-0.697479	-0.016507
2828.25	-0.000643921	0.00602051
2830.57	0.000912476	0.00394623
2832.91	-0.697906	-0.0165039
2835.25	0.000280762	0.00601929
2837.57	0.000537109	0.00395355
2839.91	-0.698883	-0.01651
2842.25	-0.000579834	0.00602814
2844.57	0.000299072	0.00394958
2846.91	-0.697723	-0.0165039
2849.25	-0.000588989	0.00602081
2851.57	-0.000274658	0.00395935
2853.91	-0.698669	-0.0165039
2856.25	0.00101318	0.00601105
2858.57	0.00107727	0.00394989
2860.91	-0.699249	-0.0164917
2863.25	-0.000540161	0.00601685
2865.57	5.49316e-05	0.00396118
2867.92	-0.699066	-0.0164856
2870.26	0.00100708	0.00600464
2872.58	-0.000738525	0.00396454
2874.92	-0.697388	-0.0164948
2877.26	-0.000744629	0.00601044
2879.58	-0.000689697	0.00396759
2881.92	-0.697937	-0.0165009
2884.26	0.000814819	0.00600739
2886.58	-0.000546265	0.00395996
2888.92	-0.697693	-0.0165009
2891.26	0.000268555	0.00600708
2893.58	-0.000747681	0.00396881
2895.92	-0.697693	-0.0164978
2898.26	0.000872803	0.00599884
2900.58	-0.00022583	0.00396423
2902.92	-0.698975	-0.0164795
2905.26	0.00062561	0.00599792
2907.58	-3.05176e-06	0.00396912
2909.92	-0.69754	-0.0164917
2912.26	-0.000204468	0.0060083
2914.58	-0.000534058	0.00397064
2916.92	-0.698639	-0.0164886
2919.26	-0.00010376	0.00599976
2921.58	0.000183105	0.00397339
2923.92	-0.698547	-0.0164642
2926.26	0.000732422	0.00598755
2928.58	-0.000109863	0.003974
2930.92	-0.698212	-0.0164673
2933.26	-0.000344849	0.00599854
2935.58	0.000796509	0.00396393
2937.92	-0.69754	-0.0164764
2940.26	0.000531006	0.00598755
2942.58	-0.000643921	0.00397888
2944.92	-0.6987	-0.0164703
2947.26	0.000799561	0.0059848
2949.58	-0.000476074	0.00397766
2951.92	-0.699066	-0.0164673
2954.26	0.00022583	0.00599213
2956.58	0.000894165	0.00397156
2958.92	-0.697601	-0.0164795
2961.26	-0.000827026	0.00599609
2963.58	0.000769043	0.00397552
2965.92	-0.69751	-0.0164825
2968.26	8.23975e-05	0.00598633
2970.58	8.23975e-05	0.00398621
2972.92	-0.698517	-0.0164642
2975.26	0.000463867	0.00599274
2977.58	-0.00078125	0.00398773
2979.92	-0.69754	-0.0164795
2982.26	-0.000769043	0.00599304
2984.58	-0.000430298	0.00399261
2986.92	-0.699341	-0.0164734
2989.26	0.000814819	0.00598175
2991.58	-0.000125122	0.00398651
2993.92	-0.697968	-0.0164734
2996.26	0.00106201	0.00597931
2998.58	-0.000692749	0.00399445
3000.92	-0.698517	-0.0164703
3003.26	0.00015564	0.00598083
3005.58	-0.000546265	0.00399628
3007.88	0.000418091	0.00278809