File: Edgar/20240607/20240607/electrodeposition_pulsed_potential_20240607_E/pulses_0_to_1000.txt
Time (s)	WE(1).Potential (V)	WE(1).Current (A)
181.662	-0.700043	-0.00362061
184.002	-0.000238037	0.000116394
186.322	-0.000750732	2.76184e-05
188.662	-0.698914	-0.00578186
191.002	0.000692749	0.000214539
193.322	-0.000384521	-5.22461e-05
195.662	-0.699982	-0.00819397
198.002	0.000198364	0.000471405
200.322	0.00112915	-0.000123657
202.662	-0.699127	-0.00968933
205.002	-0.00010376	0.0013092
207.322	-0.000305176	-0.000148865
209.662	-0.698517	-0.0107697
212.002	0.00123901	0.00239197
214.322	0.00123291	-0.000175446
216.662	-0.697784	-0.0115784
219.002	0.000979614	0.00337341
221.322	-0.000579834	-0.00017337
223.662	-0.698853	-0.0121887
226.002	0.00128174	0.0041449
228.322	0.000860596	-0.000182556
230.662	-0.698425	-0.0126923
233.002	0.000424194	0.0047467
235.322	-0.00038147	-0.000171021
237.662	-0.699524	-0.0130829
240.002	0.000213623	0.00522888
242.322	0.00107727	-0.000170593
244.662	-0.699219	-0.0134094
247.002	0.000228882	0.00560944
249.322	-0.000305176	-0.000148651
251.662	-0.699615	-0.013678
254.002	0.00119019	0.00591187
256.322	0	-0.000137787
258.662	-0.699493	-0.0139252
261.002	-0.000875854	0.00617767
263.322	0.00108948	-0.000126648
265.662	-0.699341	-0.014151
268.002	-7.93457e-05	0.00638824
270.322	0.000915527	-0.000102783
272.662	-0.699402	-0.0143402
275.002	0.000430298	0.00655945
277.322	-0.000637817	-6.73218e-05
279.662	-0.6987	-0.0145325
282.002	0.000164795	0.00671051
284.322	0.000280762	-5.01404e-05
286.662	-0.69812	-0.014682
289.002	-0.00083313	0.00684448
291.322	-0.000457764	-9.552e-06
293.662	-0.699554	-0.0148285
296.002	-0.000311279	0.00694611
298.322	0.00123291	1.43433e-05
300.662	-0.699554	-0.0149658
303.002	0.000311279	0.00703888
305.322	-0.000308228	5.86853e-05
307.662	-0.699646	-0.015094
310.002	0.00105286	0.00712158
312.322	-4.27246e-05	9.56421e-05
314.662	-0.69812	-0.0152313
317.002	-0.000750732	0.00720581
319.322	0.000189209	0.000127258
321.662	-0.697479	-0.015332
324.002	0.000900269	0.00726349
326.322	-0.000726318	0.000178894
328.662	-0.6987	-0.0154236
331.002	0.00114441	0.00732269
333.322	0.00055542	0.00021106
335.662	-0.69928	-0.0155365
338.002	-0.000695801	0.0073819
340.322	0.00017395	0.000258789
342.662	-0.69754	-0.0156281
345.002	-0.00038147	0.00742737
347.322	-0.000244141	0.000304779
349.662	-0.698151	-0.0157227
352.002	0.00057373	0.00746765
354.322	0.00111694	0.000339935
356.662	-0.697418	-0.0157959
359.002	0.000161743	0.00751648
361.322	-0.000576782	0.000396667
363.662	-0.698944	-0.0158478
366.002	-0.00101318	0.00753479
368.322	-0.000213623	0.000437866
370.662	-0.699402	-0.0159363
373.002	-0.000875854	0.00756836
375.322	-0.000482178	0.000484558
377.662	-0.698364	-0.0160004
380.002	0.0009552	0.00758362
382.322	3.35693e-05	0.000533752
384.662	-0.697632	-0.0160675
387.002	-0.00104675	0.00761108
389.322	-0.00057373	0.000579529
391.662	-0.698578	-0.0161438
394.002	0.000619507	0.0076355
396.322	-0.000735474	0.00062439
398.662	-0.697693	-0.0162018
401.002	0.00090332	0.00763855
403.322	0.00121765	0.00065918
405.662	-0.699371	-0.0162354
408.002	0.000717163	0.00766296
410.322	-0.000784302	0.000714417
412.662	-0.698761	-0.0163025
415.002	-0.000216675	0.00765381
417.322	-0.000561523	0.000759888
419.662	-0.699158	-0.0163452
422.002	0.000891113	0.00765991
424.322	0.000576782	0.000794983
426.662	-0.697662	-0.016394
429.002	0.000650024	0.00767212
431.322	0.000863647	0.000837402
433.662	-0.69931	-0.0164215
436.002	-0.000991821	0.00768433
438.322	-2.74658e-05	0.000881042
440.662	-0.697418	-0.0164642
443.002	-0.00100708	0.00769348
445.322	-2.13623e-05	0.000932617
447.662	-0.699463	-0.0165131
450.002	0.000588989	0.00769043
452.322	0.000888062	0.000965576
454.662	-0.698486	-0.0165497
457.002	-0.000424194	0.00768738
459.322	-0.000662231	0.00101776
461.662	-0.697784	-0.0166077
464.002	-0.000619507	0.00769348
466.322	0.00123596	0.00104889
468.662	-0.698425	-0.016629
471.002	-0.00111389	0.00769653
473.322	0.000869751	0.00108948
475.662	-0.697662	-0.0166687
478.002	0.000646973	0.00769043
480.322	5.49316e-05	0.00113953
482.662	-0.698547	-0.0166992
485.002	0.000738525	0.00770264
487.322	0.00126648	0.00117157
489.662	-0.699127	-0.0167389
492.002	-0.000949097	0.00769653
494.322	0.000497437	0.00120819
496.662	-0.697388	-0.0167633
499.002	-0.000305176	0.00770264
501.322	0.00088501	0.00124847
503.662	-0.697571	-0.016803
506.002	0.00062561	0.00769348
508.322	-0.000411987	0.00129608
510.662	-0.697632	-0.0168213
513.002	-0.000552368	0.00769348
515.322	-0.0006073	0.00133728
517.662	-0.698853	-0.0168335
520.002	0.000897217	0.00767517
522.322	0.0013092	0.00136505
524.662	-0.697418	-0.0168732
527.002	0.000775146	0.00766296
529.322	0.00088501	0.00139862
531.662	-0.699036	-0.0168823
534.002	-0.00102234	0.00766602
536.322	0.0012207	0.00143463
538.662	-0.698853	-0.0169128
541.002	0.000805664	0.00765686
543.322	0.000500488	0.00147278
545.662	-0.69751	-0.0169373
548.002	-0.00098877	0.00765076
550.322	-0.000701904	0.00151062
552.662	-0.69928	-0.0169495
555.002	-0.000817871	0.0076416
557.322	0.000393677	0.00154572
559.662	-0.699127	-0.0169769
562.002	-0.000683594	0.00763855
564.322	0.000631714	0.00157349
566.662	-0.699371	-0.0169861
569.002	-0.000570679	0.00761719
571.322	0.000845337	0.00160614
573.662	-0.697601	-0.0170105
576.002	0.000933838	0.00761414
578.322	-0.000753784	0.001651
580.662	-0.699463	-0.0170197
583.002	-0.00098877	0.00760498
585.322	0.000827026	0.00166901
587.662	-0.697479	-0.0170502
590.002	-0.000247192	0.00761414
592.322	0.000292969	0.00170898
594.662	-0.69751	-0.0170502
597.002	0.000726318	0.00759277
599.322	0.00106201	0.0017334
601.662	-0.697479	-0.0170685
604.002	-0.00067749	0.00757446
606.322	0.000665283	0.0017691
608.662	-0.699493	-0.0170685
611.002	-0.00104065	0.00757141
613.322	0.00104065	0.00179291
615.662	-0.697571	-0.0170776
618.002	-0.000341797	0.00756531
620.322	0.000354004	0.00182709
622.662	-0.69928	-0.0170929
625.002	-0.000753784	0.0075531
627.322	-0.000765991	0.00186035
629.662	-0.698364	-0.0171143
632.002	0.000674438	0.00752258
634.322	0.000579834	0.00188721
636.662	-0.698669	-0.0171021
639.002	-0.00103149	0.00752258
641.322	0.00119629	0.00190582
643.662	-0.697479	-0.0171265
646.002	-0.000930786	0.00750732
648.322	0.000656128	0.00193787
650.662	-0.698669	-0.0171387
653.002	0.000198364	0.00750122
655.322	-0.000741577	0.00197235
657.662	-0.697449	-0.0171387
660.002	0.00057373	0.00748291
662.322	9.15527e-05	0.00198608
664.662	-0.6987	-0.0171295
667.002	0.000320435	0.00747864
669.322	-0.000631714	0.00202332
671.662	-0.69928	-0.0171539
674.003	0.000418091	0.00746613
676.323	0.00104675	0.00203644
678.663	-0.698273	-0.0171539
681.003	-0.000534058	0.00745789
683.323	-0.000112915	0.00207214
685.663	-0.699524	-0.01716
688.003	-0.000161743	0.00744537
690.323	0.000958252	0.00208466
692.663	-0.699005	-0.0171631
695.003	0.000180054	0.00742462
697.323	0.00118408	0.00211182
699.663	-0.697418	-0.0171875
702.003	-9.15527e-06	0.00742279
704.323	-6.10352e-05	0.00213989
706.663	-0.699127	-0.0171814
709.003	0.000231934	0.00741119
711.323	0.000192261	0.00216034
713.663	-0.699371	-0.0171753
716.003	-0.000863647	0.00740387
718.323	0.000997925	0.00218506
720.663	-0.698547	-0.0171783
723.003	0.00110168	0.00738617
725.323	0.000283813	0.00221191
727.663	-0.69751	-0.0172028
730.003	-0.000717163	0.00738495
732.323	0.000665283	0.00222809
734.663	-0.697998	-0.0171936
737.003	-0.000292969	0.00736847
739.323	-0.00072937	0.00225677
741.663	-0.697571	-0.0171997
744.003	0.000518799	0.00736115
746.323	0.000463867	0.00227722
748.663	-0.699005	-0.0172119
751.003	-0.000823975	0.00735443
753.323	-0.000549316	0.00230225
755.663	-0.699066	-0.0172028
758.003	0.0009552	0.00733307
760.323	0.000875854	0.00232025
762.663	-0.697357	-0.0172119
765.003	0.000827026	0.00731964
767.323	-0.000289917	0.00234558
769.663	-0.697784	-0.0172241
772.003	0.000198364	0.0073175
774.323	0.00108337	0.00235443
776.663	-0.699249	-0.0172028
779.003	-0.000619507	0.00730957
781.323	0.00116577	0.00237396
783.663	-0.698914	-0.0172089
786.003	-0.000793457	0.00729858
788.323	0.00121765	0.00239319
790.663	-0.699097	-0.0172028
793.003	-0.00102539	0.00728821
795.323	-7.62939e-05	0.00241547
797.663	-0.69751	-0.0172241
800.003	0.000256348	0.00727295
802.323	0.00110168	0.0024292
804.663	-0.698822	-0.017215
807.003	0.000299072	0.00726654
809.323	-0.000390625	0.00245636
811.663	-0.697998	-0.0172272
814.003	0.000302124	0.00725525
816.323	-0.000650024	0.0024765
818.663	-0.697815	-0.0172333
821.003	0.000540161	0.00723969
823.323	0.000830078	0.00248444
825.663	-0.698029	-0.017215
828.003	-0.000479126	0.00724121
830.323	-0.000753784	0.00251556
832.663	-0.699493	-0.0172089
835.003	-0.000253296	0.00722961
837.323	4.88281e-05	0.00252777
839.663	-0.697418	-0.0172241
842.003	-0.000772095	0.00722168
844.323	0.000137329	0.00254852
846.663	-0.69751	-0.0172211
849.003	0.000619507	0.00720642
851.323	0.000878906	0.00255249
853.663	-0.69931	-0.0172058
856.003	-0.00083313	0.00719574
858.323	-0.00045166	0.00258057
860.663	-0.698242	-0.0172119
863.003	-7.62939e-05	0.00718109
865.323	0.000115967	0.00259705
867.663	-0.698608	-0.0172241
870.003	-0.000369263	0.00716858
872.323	5.49316e-05	0.00261078
874.663	-0.698151	-0.0172089
877.003	-0.000814819	0.00716888
879.323	-0.000732422	0.00262848
881.623	0.001171875	0.000784302