File: Edgar/20240607/20240607/electrodeposition_pulsed_potential_20240607_E/pulses_1000_to_2000.txt
Time (s)	WE(1).Potential (V)	WE(1).Current (A)
890.201	-0.698517	-0.0182587
892.541	0.00103149	0.00693695
894.861	0.000738525	0.00250793
897.201	-0.69809	-0.0172638
899.541	0.00098877	0.00705933
901.861	-0.000442505	0.0026004
904.201	-0.69751	-0.0172455
906.541	-0.000143433	0.00708649
908.861	-0.000714111	0.00264038
911.201	-0.697479	-0.0172241
913.541	0.000872803	0.00708771
915.861	0.00126343	0.00265808
918.201	-0.698212	-0.0172211
920.541	-0.0009552	0.00710266
922.861	0.00102539	0.00268158
925.201	-0.697937	-0.0172028
927.541	0.000793457	0.00709106
929.861	0.00101929	0.00270416
932.201	-0.698456	-0.0171997
934.541	0.000875854	0.00708435
936.861	0.000100708	0.00272949
939.201	-0.699371	-0.0171906
941.541	-0.000491333	0.00707855
943.861	-0.000674438	0.00274567
946.201	-0.699493	-0.0171875
948.541	-0.00057373	0.0070813
950.861	-4.88281e-05	0.0027536
953.201	-0.699432	-0.0171844
955.541	0.00100403	0.00706451
957.861	0.00129089	0.00276489
960.201	-0.697571	-0.0171967
962.541	-0.000701904	0.00706573
964.861	0.000637817	0.00277618
967.201	-0.698151	-0.0171906
969.541	-0.000524902	0.00705414
971.861	0.000146484	0.00279663
974.201	-0.69751	-0.0171906
976.541	-0.000436401	0.00704681
978.861	-0.000750732	0.00281189
981.201	-0.69928	-0.0171844
983.541	0.000985718	0.00702667
985.861	-0.000799561	0.00282593
988.201	-0.699249	-0.0171753
990.541	-6.10352e-05	0.00701874
992.861	0.000564575	0.00282379
995.201	-0.697754	-0.0171722
997.541	0.00115662	0.00700989
999.861	-0.000714111	0.00284882
1002.2	-0.697662	-0.0171875
1004.54	0.000473022	0.00699982
1006.86	-0.000726318	0.00286072
1009.2	-0.698029	-0.0171722
1011.54	0.000592041	0.00698944
1013.86	0.00124817	0.00286163
1016.2	-0.697601	-0.0171631
1018.54	0.000100708	0.00699158
1020.86	-0.000506592	0.00288452
1023.2	-0.698364	-0.0171661
1025.54	0.00100708	0.00697235
1027.86	-0.000723267	0.00289642
1030.2	-0.69873	-0.0171722
1032.54	0.000668335	0.0069693
1034.86	-0.000805664	0.00290558
1037.2	-0.698303	-0.0171783
1039.54	0.000646973	0.00695404
1041.86	-0.000650024	0.00292053
1044.2	-0.697632	-0.0171661
1046.54	-0.000497437	0.00695984
1048.86	0.001171875	0.00291748
1051.2	-0.69754	-0.0171661
1053.54	0.000878906	0.00694305
1055.86	-0.000488281	0.00293701
1058.2	-0.697693	-0.01716
1060.54	-0.000784302	0.00694122
1062.86	0.000878906	0.00293793
1065.2	-0.69754	-0.017157
1067.54	0.000537109	0.00692291
1069.86	0.000582886	0.00295746
1072.2	-0.698334	-0.0171387
1074.54	-0.000912476	0.006922
1076.86	0.000527954	0.00296478
1079.2	-0.699371	-0.0171448
1081.54	-0.000640869	0.00691589
1083.86	-0.000601196	0.00298035
1086.2	-0.697418	-0.0171509
1088.54	0.000427246	0.00690216
1090.86	0.00043335	0.00297974
1093.2	-0.697784	-0.0171509
1095.54	0.000183105	0.00689606
1097.86	-0.000695801	0.0030011
1100.2	-0.698517	-0.0171295
1102.54	0.000482178	0.00688629
1104.86	0.000775146	0.00300598
1107.2	-0.697418	-0.0171295
1109.54	-0.000747681	0.00687531
1111.86	-0.000628662	0.00301636
1114.2	-0.699371	-0.0171265
1116.54	0.00065918	0.00686401
1118.86	-0.000778198	0.00302795
1121.2	-0.697479	-0.0171265
1123.54	-0.000952148	0.00686554
1125.86	4.27246e-05	0.0030365
1128.2	-0.698608	-0.0171051
1130.54	-0.00088501	0.00685944
1132.86	-0.000390625	0.00304901
1135.2	-0.699402	-0.0171143
1137.54	-0.00083313	0.00685059
1139.86	0.000152588	0.00305725
1142.2	-0.699463	-0.0171082
1144.54	-0.000631714	0.00684265
1146.86	0.000979614	0.00305298
1149.2	-0.699188	-0.0170959
1151.54	0.00098877	0.00682556
1153.86	0.000259399	0.0030658
1156.2	-0.699097	-0.0170959
1158.54	0.000793457	0.00681274
1160.86	0.000646973	0.00307281
1163.2	-0.697937	-0.017099
1165.54	-0.000183105	0.00681671
1167.86	7.62939e-05	0.0030835
1170.2	-0.69928	-0.0170868
1172.54	-0.000854492	0.00681549
1174.86	0.000671387	0.00308807
1177.2	-0.698883	-0.0170868
1179.54	-0.000253296	0.00680115
1181.86	0.000720215	0.00309509
1184.2	-0.697876	-0.0170807
1186.54	0.000952148	0.00678314
1188.86	-0.000485229	0.00311676
1191.2	-0.697296	-0.0170776
1193.54	-0.00100708	0.0067868
1195.86	-0.000753784	0.00312378
1198.2	-0.697571	-0.0170807
1200.54	-0.000390625	0.00677917
1202.86	0.000964355	0.00312561
1205.2	-0.697357	-0.0170593
1207.54	0.00119324	0.00676331
1209.86	0.000619507	0.00313416
1212.2	-0.69754	-0.0170746
1214.54	0.00107727	0.00675507
1216.86	0.000796509	0.00314148
1219.2	-0.697662	-0.0170502
1221.54	0.000537109	0.00675171
1223.86	-0.000448608	0.00315704
1226.2	-0.699371	-0.0170471
1228.54	-0.000521851	0.00675201
1230.86	-0.000775146	0.00316528
1233.2	-0.697601	-0.017038
1235.54	0.0010376	0.0067334
1237.86	0.000595093	0.00316833
1240.2	-0.697784	-0.0170349
1242.54	6.40869e-05	0.00672974
1244.86	0.000387573	0.00317108
1247.2	-0.699341	-0.0170319
1249.54	0.000970459	0.00671967
1251.86	-5.18799e-05	0.00317993
1254.2	-0.697906	-0.017038
1256.54	-0.000964355	0.00672241
1258.86	-0.000308228	0.00319641
1261.2	-0.69754	-0.0170349
1263.54	0.000189209	0.00671387
1265.86	-0.000378418	0.0031955
1268.2	-0.69809	-0.0170044
1270.54	0.000674438	0.00669891
1272.86	0.0006073	0.00320038
1275.2	-0.698822	-0.0170013
1277.54	0.000100708	0.00670166
1279.86	0.00108032	0.00320618
1282.2	-0.698364	-0.0170074
1284.54	0.000875854	0.00668915
1286.86	0.000405884	0.00321533
1289.2	-0.699341	-0.0170074
1291.54	-0.000756836	0.00668823
1293.86	0.000518799	0.00322601
1296.2	-0.69751	-0.0170105
1298.54	-0.000454712	0.00668671
1300.86	-0.000491333	0.00323303
1303.2	-0.697784	-0.0170074
1305.54	-0.000509644	0.00667725
1307.86	0.00110168	0.00323517
1310.2	-0.697479	-0.0170074
1312.54	-0.00090332	0.00667542
1314.86	-7.01904e-05	0.00324615
1317.2	-0.699402	-0.0169922
1319.54	-0.000100708	0.00666321
1321.86	-0.000494385	0.00326202
1324.2	-0.697906	-0.0169861
1326.54	0.000881958	0.00665283
1328.86	-0.000738525	0.00326324
1331.2	-0.697632	-0.016983
1333.54	-0.000476074	0.00665009
1335.86	-0.000741577	0.00327362
1338.2	-0.69931	-0.0169739
1340.54	6.71387e-05	0.00664673
1342.86	0.000317383	0.00326874
1345.2	-0.69809	-0.01698
1347.54	0.000473022	0.00663269
1349.86	0.000735474	0.00327606
1352.2	-0.699432	-0.0169678
1354.54	-0.000271606	0.00663116
1356.86	0.000222778	0.00328674
1359.2	-0.698273	-0.0169678
1361.54	0.000592041	0.00661896
1363.86	0.000921631	0.00328674
1366.2	-0.698212	-0.01698
1368.54	0.000134277	0.00662201
1370.86	-0.000845337	0.00329742
1373.2	-0.69873	-0.0169769
1375.54	0.000558472	0.00661011
1377.86	0.00116272	0.00329529
1380.2	-0.697845	-0.0169769
1382.54	-0.000775146	0.00661743
1384.86	0.000192261	0.00330505
1387.2	-0.69931	-0.0169495
1389.54	0.000518799	0.00660278
1391.86	-0.000296021	0.0033197
1394.2	-0.699066	-0.0169556
1396.54	0.00050354	0.00659882
1398.86	-0.000717163	0.00332794
1401.2	-0.699158	-0.0169464
1403.54	-0.000564575	0.00659546
1405.86	-0.000244141	0.00332642
1408.2	-0.698212	-0.0169373
1410.54	0.000888062	0.00658264
1412.86	-0.000405884	0.00333221
1415.2	-0.699158	-0.0169464
1417.54	-0.000564575	0.00658569
1419.86	-0.000518799	0.00334503
1422.2	-0.698151	-0.0169464
1424.54	-0.000473022	0.00658325
1426.86	0.000424194	0.00334656
1429.2	-0.698486	-0.0169434
1431.54	-0.000827026	0.00658051
1433.86	-0.000567627	0.00335846
1436.2	-0.697479	-0.0169403
1438.54	0.000286865	0.00656616
1440.86	0.00111084	0.00335449
1443.2	-0.699158	-0.0169159
1445.54	-0.00085144	0.00656738
1447.86	0.00038147	0.00336365
1450.2	-0.699402	-0.0169159
1452.54	-0.000390625	0.00656281
1454.86	0.00102234	0.00336273
1457.2	-0.699371	-0.0169189
1459.54	0.000140381	0.00655914
1461.86	-0.000695801	0.00337952
1464.2	-0.69928	-0.0169098
1466.54	-1.52588e-05	0.00655182
1468.86	-0.000384521	0.00338074
1471.2	-0.69931	-0.0169128
1473.54	0.000811768	0.00653778
1475.86	0.00085144	0.00338013
1478.2	-0.699402	-0.0169006
1480.54	0.00083313	0.00653168
1482.86	0.000738525	0.00338989
1485.2	-0.699432	-0.0168976
1487.54	-0.000308228	0.0065387
1489.86	-0.000637817	0.00340363
1492.2	-0.697723	-0.0169067
1494.54	0.00102234	0.00652374
1496.86	-0.000216675	0.00340942
1499.2	-0.698883	-0.0168915
1501.54	0.00020752	0.00652283
1503.86	0.00090332	0.00340485
1506.2	-0.698303	-0.0168854
1508.54	-0.000531006	0.00652374
1510.86	0.000421143	0.003414
1513.2	-0.699402	-0.0168884
1515.54	-8.23975e-05	0.00651184
1517.86	-0.000762939	0.00342407
1520.2	-0.698334	-0.0168884
1522.54	-0.000750732	0.00651581
1524.86	0.000341797	0.00342468
1527.2	-0.698853	-0.0168701
1529.54	-0.000283813	0.00650757
1531.86	-0.000549316	0.0034317
1534.2	-0.69931	-0.0168823
1536.54	-0.000436401	0.00650665
1538.86	-0.00071106	0.00343872
1541.2	-0.697845	-0.0168823
1543.54	-0.000790405	0.00649963
1545.86	-0.000268555	0.00343597
1548.2	-0.699066	-0.016864
1550.54	0.00116272	0.0064856
1552.86	-0.000442505	0.00345123
1555.2	-0.69754	-0.0168732
1557.54	-0.000830078	0.00649017
1559.86	0.000817871	0.00344177
1562.2	-0.697876	-0.016861
1564.54	-6.71387e-05	0.00647919
1566.86	-0.000317383	0.00345825
1569.2	-0.697449	-0.016861
1571.54	0.000161743	0.00647797
1573.86	0.000598145	0.00345886
1576.2	-0.699005	-0.0168549
1578.54	0.000924683	0.00646576
1580.86	0.000152588	0.00346191
1583.2	-0.698883	-0.0168427
1585.54	-0.000827026	0.006474
1587.86	0.000363159	0.00346863
1590.16	0.000817871	0.00185913