File: Edgar/20240607/20240607/electrodeposition_pulsed_potential_20240607_E/pulses_2000_to_3000.txt
Time (s)	WE(1).Potential (V)	WE(1).Current (A)
1599.14	-0.698059	-0.018985
1601.48	-0.000656128	0.00625549
1603.8	-0.000585937	0.00336823
1606.14	-0.697571	-0.0169128
1608.48	7.93457e-05	0.00638306
1610.8	0.000491333	0.00342621
1613.14	-0.698212	-0.016864
1615.48	0.000375366	0.00640686
1617.8	-0.000714111	0.00345917
1620.14	-0.699585	-0.0168457
1622.48	0.00104675	0.00641937
1624.8	-0.000775146	0.00347748
1627.14	-0.699097	-0.0168335
1629.48	0.000915527	0.00642365
1631.8	0.000848389	0.00348877
1634.14	-0.697754	-0.0168243
1636.48	-0.000402832	0.00642303
1638.8	0.00027771	0.00349335
1641.14	-0.69754	-0.0168182
1643.48	-0.000314331	0.00642761
1645.8	0.000830078	0.00349579
1648.14	-0.698334	-0.016803
1650.48	-0.000759888	0.0064328
1652.8	-0.000357056	0.00350952
1655.14	-0.699341	-0.0167999
1657.48	0.000497437	0.00642181
1659.8	-0.00078125	0.00351959
1662.14	-0.698364	-0.016806
1664.48	0.000341797	0.00641632
1666.8	0.000604248	0.00351837
1669.14	-0.697998	-0.016806
1671.48	-0.000112915	0.00641541
1673.8	6.10352e-05	0.00352051
1676.14	-0.698395	-0.0167938
1678.48	0.000234985	0.00641479
1680.8	0.000680542	0.00353119
1683.14	-0.699097	-0.0167877
1685.48	0.000265503	0.00640198
1687.8	-0.000283813	0.00353363
1690.14	-0.699341	-0.0167908
1692.48	-0.000585937	0.00640839
1694.8	0.00117493	0.00353119
1697.14	-0.698486	-0.0167969
1699.48	-0.000415039	0.00640778
1701.8	-0.000738525	0.00354767
1704.14	-0.69754	-0.0167847
1706.48	2.13623e-05	0.00639923
1708.8	0.0013092	0.00353943
1711.14	-0.69812	-0.0167725
1713.48	0.00101624	0.00638702
1715.8	-0.000631714	0.00355469
1718.14	-0.698608	-0.0167694
1720.48	0.00105591	0.00638336
1722.8	-0.000808716	0.00355682
1725.14	-0.699463	-0.0167694
1727.48	0.000213623	0.0063855
1729.8	-0.000772095	0.00356323
1732.14	-0.69754	-0.0167755
1734.48	-0.000814819	0.00638428
1736.8	0.0009552	0.00355408
1739.14	-0.699371	-0.0167664
1741.48	0.000756836	0.00637085
1743.8	8.8501e-05	0.00356781
1746.14	-0.697632	-0.0167664
1748.48	0.000973511	0.00636932
1750.8	0.00083313	0.00356262
1753.14	-0.697479	-0.0167694
1755.48	0.00072937	0.00636597
1757.8	0.000686646	0.00356445
1760.14	-0.699432	-0.0167419
1762.48	0.00116577	0.00635864
1764.8	-0.000363159	0.00357544
1767.14	-0.698029	-0.016748
1769.48	0.00102539	0.00635437
1771.8	0.000549316	0.00357208
1774.14	-0.698608	-0.0167389
1776.48	0.000994873	0.00635254
1778.8	-0.000811768	0.00358795
1781.14	-0.699371	-0.0167389
1783.48	0.000863647	0.0063446
1785.8	-0.000738525	0.00359283
1788.14	-0.698029	-0.0167511
1790.48	-0.000518799	0.00634979
1792.8	0.000906372	0.00358276
1795.14	-0.698334	-0.0167267
1797.48	-0.000665283	0.00634827
1799.8	-0.000576782	0.00359467
1802.14	-0.698242	-0.0167389
1804.48	-0.000762939	0.00634247
1806.8	-0.000158691	0.00359619
1809.14	-0.69812	-0.0167358
1811.48	0.00112305	0.00633301
1813.8	-0.000704956	0.00360321
1816.14	-0.697601	-0.0167267
1818.48	0.000695801	0.00632874
1820.8	0.00129395	0.00359894
1823.14	-0.697937	-0.0167206
1825.48	-0.000332642	0.00633636
1827.8	-0.000457764	0.00360901
1830.14	-0.697906	-0.0167297
1832.48	0.000595093	0.00632385
1834.8	-0.000408936	0.00361511
1837.14	-0.697571	-0.0167267
1839.48	0.000906372	0.00631622
1841.8	0.000650024	0.00360779
1844.14	-0.69754	-0.0167145
1846.48	0.000540161	0.00631134
1848.8	0.000790405	0.00361115
1851.14	-0.697906	-0.0167084
1853.48	0.000973511	0.00632599
1855.8	0.00119324	0.00361359
1858.14	-0.697815	-0.0167572
1860.48	-0.000909424	0.00633514
1862.8	-0.000747681	0.00362427
1865.14	-0.69751	-0.0167694
1867.48	0.00102539	0.00632568
1869.8	-0.000588989	0.00362061
1872.14	-0.699402	-0.0167633
1874.48	-0.000653076	0.00632874
1876.8	-0.000131226	0.00362915
1879.14	-0.699097	-0.0167633
1881.48	-0.000732422	0.006328125
1883.8	0.00104065	0.00362518
1886.14	-0.698547	-0.0167603
1888.48	-0.000125122	0.00632355
1890.8	0.000830078	0.00362854
1893.14	-0.699005	-0.0167542
1895.48	0.000146484	0.00631592
1897.8	0.000527954	0.0036322
1900.14	-0.697754	-0.0167542
1902.48	0.00101013	0.00630951
1904.8	0.000619507	0.00364288
1907.14	-0.697845	-0.0167511
1909.48	-0.000234985	0.00630585
1911.8	-0.000732422	0.00364594
1914.14	-0.698242	-0.016748
1916.48	-0.000750732	0.00631531
1918.8	0.000231934	0.00364349
1921.14	-0.699158	-0.0167328
1923.48	-0.00022583	0.00630585
1925.8	0.00109863	0.00364502
1928.14	-0.698669	-0.0167358
1930.48	-0.000787354	0.00630615
1932.8	0.000817871	0.0036496
1935.14	-0.69931	-0.0167297
1937.48	0.00103149	0.00629364
1939.8	-0.000402832	0.00366089
1942.14	-0.699127	-0.0167328
1944.48	-0.000177002	0.00630096
1946.8	0.0006073	0.00365845
1949.14	-0.698975	-0.0167206
1951.48	-0.000582886	0.006297
1953.8	0.00117798	0.00365692
1956.14	-0.697388	-0.0167175
1958.48	-0.000796509	0.00629547
1960.8	0.000942993	0.0036618
1963.14	-0.699341	-0.0167053
1965.48	0.00102539	0.0062793
1967.8	-7.01904e-05	0.00367584
1970.14	-0.699463	-0.0167053
1972.48	0.000949097	0.00627625
1974.8	-0.000332642	0.00367737
1977.14	-0.69809	-0.0167145
1979.48	-0.000323486	0.00628113
1981.8	0.000445557	0.00367676
1984.14	-0.697906	-0.0167023
1986.48	-0.000613403	0.00627808
1988.8	0.000445557	0.00367462
1991.14	-0.697479	-0.0167053
1993.48	0.0006073	0.0062738
1995.8	-6.40869e-05	0.00368469
1998.14	-0.697601	-0.0166962
2000.48	-0.000445557	0.0062738
2002.8	-0.00067749	0.00369232
2005.14	-0.69873	-0.0167084
2007.48	-0.000891113	0.00627899
2009.8	-0.000601196	0.0036908
2012.14	-0.699432	-0.0166931
2014.48	-0.000848389	0.00627106
2016.8	0.000662231	0.00369293
2019.14	-0.697632	-0.0167084
2021.48	-0.000720215	0.00626953
2023.8	0.000482178	0.00369232
2026.14	-0.69754	-0.0166992
2028.48	0.00107117	0.00625305
2030.8	0.0006073	0.00368988
2033.14	-0.699158	-0.0166962
2035.48	-0.000808716	0.00626068
2037.8	-0.000222778	0.0037027
2040.14	-0.699219	-0.0166901
2042.48	-0.000872803	0.00625488
2044.8	0.000949097	0.00369537
2047.14	-0.69751	-0.016687
2049.48	0.00103455	0.00624237
2051.8	-0.000326538	0.00371094
2054.14	-0.69931	-0.0166748
2056.48	0.000564575	0.00623932
2058.8	0.000442505	0.00370819
2061.14	-0.699341	-0.0166656
2063.48	-0.000790405	0.00624664
2065.8	0.000674438	0.00370758
2068.14	-0.697754	-0.0166718
2070.48	-0.000262451	0.00624268
2072.8	0.000543213	0.00370697
2075.14	-0.697937	-0.0166595
2077.48	0.00071106	0.00623016
2079.8	-0.000372314	0.00371674
2082.14	-0.697571	-0.0166656
2084.48	0.000708008	0.00623444
2086.8	7.32422e-05	0.00371277
2089.14	-0.697662	-0.0166565
2091.48	-0.000411987	0.00623199
2093.8	3.05176e-06	0.00372467
2096.14	-0.698761	-0.0166656
2098.48	-0.000836182	0.00623169
2100.8	-0.000430298	0.00372467
2103.14	-0.697662	-0.0166565
2105.48	0.000692749	0.00621826
2107.8	0.000280762	0.00372406
2110.14	-0.69754	-0.0166626
2112.48	0.000582886	0.00621979
2114.8	0.0011261	0.00372467
2117.14	-0.69812	-0.0166443
2119.48	0.00106812	0.00621216
2121.8	-0.000119019	0.00373871
2124.14	-0.699097	-0.0166534
2126.48	-6.40869e-05	0.00622284
2128.8	-0.000531006	0.00373718
2131.14	-0.697876	-0.0166504
2133.48	0.000323486	0.0062088
2135.8	0.00102539	0.00373627
2138.14	-0.697906	-0.0166473
2140.48	-0.000469971	0.00621033
2142.8	0.000915527	0.00373413
2145.14	-0.69809	-0.0166321
2147.48	0.00017395	0.00620819
2149.8	0.000619507	0.00374329
2152.14	-0.697479	-0.0166321
2154.48	0.000421143	0.00620361
2156.8	0.000579834	0.00373901
2159.14	-0.698029	-0.0166382
2161.48	0.000964355	0.00619415
2163.8	-0.000787354	0.00375397
2166.14	-0.698639	-0.0166168
2168.48	0.00101624	0.00619049
2170.8	-0.000357056	0.00375183
2173.14	-0.699249	-0.0166107
2175.48	-0.00017395	0.00619476
2177.8	0.00107117	0.00374634
2180.14	-0.698761	-0.0166168
2182.48	-0.000924683	0.00619568
2184.8	0.000140381	0.00375793
2187.14	-0.697662	-0.0166138
2189.48	-5.79834e-05	0.00619019
2191.8	-0.000262451	0.00375275
2194.14	-0.698944	-0.0165985
2196.48	0.00105591	0.00618103
2198.8	0.000695801	0.00375885
2201.14	-0.697601	-0.0166077
2203.48	0.000637817	0.00617706
2205.8	0.000341797	0.00376038
2208.14	-0.699127	-0.0166046
2210.48	-0.000720215	0.00618225
2212.8	0.00114746	0.00376007
2215.14	-0.699188	-0.0165924
2217.48	-0.000302124	0.00618195
2219.8	0.00010376	0.00377106
2222.14	-0.699402	-0.0165924
2224.48	-0.000238037	0.00617676
2226.8	0.000579834	0.00377319
2229.14	-0.697601	-0.0165894
2231.48	-0.000396729	0.00616699
2233.8	0.000915527	0.00376892
2236.14	-0.699493	-0.0165741
2238.48	0.00022583	0.00616791
2240.8	-0.000299072	0.00377594
2243.14	-0.699005	-0.0165863
2245.48	0.000192261	0.00615997
2247.8	-7.62939e-05	0.00377563
2250.14	-0.698334	-0.0165741
2252.48	-0.000942993	0.00616516
2254.8	0.0011322	0.00377258
2257.14	-0.698578	-0.0165802
2259.48	-0.000595093	0.00616425
2261.8	-0.000756836	0.00378235
2264.14	-0.69754	-0.0165741
2266.48	0.00112	0.00614929
2268.8	0.000979614	0.00377777
2271.14	-0.69751	-0.016568
2273.48	0.000238037	0.00615204
2275.8	-0.000430298	0.00378723
2278.14	-0.69754	-0.0165894
2280.48	-8.23975e-05	0.00615448
2282.8	-0.000701904	0.00379181
2285.14	-0.699219	-0.0165863
2287.48	-0.000695801	0.00615204
2289.8	-0.000439453	0.00378937
2292.14	-0.699432	-0.0165771
2294.48	3.66211e-05	0.00615204
2296.8	-0.000756836	0.0037912
2299.1	-0.000369263	0.00242737