File: Edgar/20230619/20230619/electrodeposition_WO3_thin_films_onto_ITO_A/wo3_film_continuous_electrodeposition_B/CA_2
Time (s)	WE(1).Current (A)	WE(1).Potential (V)
66.5097	-0.00202209	-0.699677
68.9097	-0.00345886	-0.699615
71.3097	-0.00434509	-0.699127
73.7097	-0.00473907	-0.699524
76.1097	-0.0049231	-0.699127
78.5097	-0.00498291	-0.699188
80.9097	-0.00496735	-0.699493
83.3097	-0.0049118	-0.699158
85.7097	-0.00484009	-0.699158
88.1097	-0.00476135	-0.699097
90.5097	-0.00468109	-0.699463
92.9097	-0.00460693	-0.699463
95.3097	-0.00453583	-0.699615
97.7097	-0.00446991	-0.699463
100.11	-0.00440948	-0.699402
102.51	-0.00435547	-0.69931
104.91	-0.00430817	-0.699524
107.31	-0.0042688	-0.699341
109.71	-0.00423553	-0.699554
112.11	-0.00420868	-0.699127
114.51	-0.00418701	-0.699554
116.91	-0.00417053	-0.699005
119.31	-0.00415588	-0.699432
121.71	-0.00414368	-0.699219
124.11	-0.00413788	-0.699158
126.51	-0.00413086	-0.699158
128.91	-0.00412628	-0.699097
131.31	-0.00412109	-0.699524
133.71	-0.00411713	-0.699066
136.11	-0.00411316	-0.699493
138.51	-0.00410919	-0.699402
140.91	-0.00410614	-0.699463
143.31	-0.00410278	-0.699493
145.71	-0.00409851	-0.699585
148.11	-0.00409515	-0.699188
150.51	-0.00409149	-0.699554
152.91	-0.00408691	-0.699585
155.31	-0.00408508	-0.699158
157.71	-0.00408234	-0.699524
160.11	-0.00407959	-0.699036
162.51	-0.00407623	-0.699554
164.91	-0.00407196	-0.699188
167.31	-0.00406952	-0.699188
169.71	-0.00406738	-0.699219
172.11	-0.00406372	-0.699432
174.51	-0.00406097	-0.699341
176.91	-0.00405853	-0.699585
179.31	-0.00405579	-0.699036
181.71	-0.00405243	-0.699127
184.11	-0.00404938	-0.699249
186.51	-0.00404755	-0.69931
188.91	-0.0040451	-0.699341
191.31	-0.00404266	-0.699402
193.71	-0.00404053	-0.699371
196.11	-0.00403778	-0.69931
198.51	-0.00403534	-0.699554
200.91	-0.00403381	-0.699585
203.31	-0.00403168	-0.699524
205.71	-0.00402924	-0.699554
208.11	-0.00402618	-0.699219
210.51	-0.00402527	-0.699188
212.91	-0.00402344	-0.699188
215.31	-0.00402161	-0.699219
217.71	-0.00401917	-0.699402
220.11	-0.00401733	-0.699554
222.51	-0.0040152	-0.699341
224.91	-0.00401337	-0.699493
227.31	-0.00401123	-0.699097
229.71	-0.0040097	-0.699402
232.11	-0.00400757	-0.699158
234.51	-0.00400543	-0.699554
236.91	-0.00400421	-0.699554
239.31	-0.00400269	-0.699188
241.71	-0.00400208	-0.699097
244.11	-0.00399872	-0.699493
246.51	-0.00399841	-0.699463
248.91	-0.0039975	-0.699127
251.31	-0.00399597	-0.699158
253.71	-0.00399475	-0.69931
256.11	-0.00399353	-0.699127
258.51	-0.0039917	-0.699371
260.91	-0.00398926	-0.699402
263.31	-0.00398743	-0.699066
265.71	-0.0039856	-0.699127
268.11	-0.00398529	-0.699524
270.51	-0.00398285	-0.699066
272.91	-0.00397949	-0.699219
275.31	-0.00397888	-0.699127
277.71	-0.00397522	-0.69931
280.11	-0.00397461	-0.699249
282.51	-0.00397339	-0.699127
284.91	-0.00397095	-0.699524
287.31	-0.00396912	-0.699463
289.71	-0.00396881	-0.699127
292.11	-0.00396667	-0.699432
294.51	-0.00396454	-0.699371
296.91	-0.00396149	-0.699097
299.31	-0.00395966	-0.699554
301.71	-0.00395813	-0.699402
304.11	-0.00395599	-0.699341
306.51	-0.00395416	-0.699158
308.91	-0.00395264	-0.699463
311.31	-0.00395111	-0.699554
313.71	-0.00394928	-0.699493
316.11	-0.00394775	-0.699493
318.51	-0.00394592	-0.699341
320.91	-0.0039444	-0.699341
323.31	-0.00394226	-0.699402
325.71	-0.00394073	-0.699158
328.11	-0.0039389	-0.699463
330.51	-0.00393738	-0.699127
332.91	-0.00393494	-0.699188
335.31	-0.00393311	-0.699463
337.71	-0.00393188	-0.69931
340.11	-0.00392975	-0.69928
342.51	-0.00392853	-0.699463
344.91	-0.0039267	-0.699615
347.31	-0.00392548	-0.699585
349.71	-0.00392303	-0.699554
352.11	-0.00392151	-0.699463
354.51	-0.00391968	-0.699493
356.91	-0.00391724	-0.699432
359.31	-0.00391632	-0.699432
361.71	-0.00391357	-0.699524
364.11	-0.00391235	-0.699249
366.51	-0.00391113	-0.699249
368.91	-0.00390961	-0.699249
371.31	-0.00390778	-0.699127
373.71	-0.00390656	-0.699524
376.11	-0.00390442	-0.699127
378.51	-0.0039032	-0.699615
380.91	-0.00390106	-0.699127
383.31	-0.00389954	-0.699463
385.71	-0.00389709	-0.699219
388.11	-0.00389557	-0.699463
390.51	-0.00389282	-0.699432
392.91	-0.00389099	-0.69928
395.31	-0.00388824	-0.699524
397.71	-0.00388611	-0.699554
400.11	-0.00388397	-0.699615
402.51	-0.00388153	-0.699158
404.91	-0.00388	-0.699432
407.31	-0.00387787	-0.699463
409.71	-0.00387512	-0.699188
412.11	-0.00387146	-0.699097
414.51	-0.00387054	-0.699158
416.91	-0.00386902	-0.699554
419.31	-0.00386658	-0.699127
421.71	-0.00386383	-0.699097
424.11	-0.003862	-0.699524
426.51	-0.00386017	-0.699493
428.91	-0.00385864	-0.699127
431.31	-0.00385559	-0.699463
433.71	-0.00385376	-0.699371
436.11	-0.00385254	-0.699463
438.51	-0.0038504	-0.699371
440.91	-0.00384796	-0.69931
443.31	-0.00384583	-0.699127
445.71	-0.0038443	-0.699524
448.11	-0.00384277	-0.699493
450.51	-0.00384094	-0.699219
452.91	-0.00383942	-0.699127
455.31	-0.00383759	-0.699585
457.71	-0.00383575	-0.699219
460.11	-0.00383362	-0.699127
462.51	-0.00383209	-0.69931
464.91	-0.00383026	-0.699158
467.31	-0.00382782	-0.699493
469.71	-0.00382629	-0.699402
472.11	-0.00382416	-0.699158
474.51	-0.00382294	-0.699097
476.91	-0.0038208	-0.699524
479.31	-0.00381836	-0.699097
481.71	-0.00381714	-0.699493
484.11	-0.00381531	-0.699371
486.51	-0.00381317	-0.699341
488.91	-0.00381165	-0.699371
491.31	-0.00381012	-0.699463
493.71	-0.0038089	-0.699463
496.11	-0.00380707	-0.699585
498.51	-0.0038031	-0.699585
500.91	-0.00380249	-0.699249
503.31	-0.00380035	-0.699524
505.71	-0.00379974	-0.699524
508.11	-0.00379822	-0.699402
510.51	-0.003797	-0.699463
512.91	-0.00379547	-0.69928
515.31	-0.00379395	-0.699493
517.71	-0.00379211	-0.699066
520.11	-0.00379089	-0.699554
522.51	-0.00378937	-0.699249
524.91	-0.00378754	-0.699127
527.31	-0.00378601	-0.699341
529.71	-0.00378448	-0.699402
532.11	-0.00378265	-0.699463
534.51	-0.00378113	-0.699585
536.91	-0.0037793	-0.699402
539.31	-0.00377716	-0.699341
541.71	-0.00377563	-0.699249
544.11	-0.00377319	-0.699432
546.51	-0.00377167	-0.699188
548.91	-0.00376892	-0.699524
551.31	-0.0037674	-0.699188
553.71	-0.00376556	-0.699432
556.11	-0.00376465	-0.699158
558.51	-0.0037619	-0.699463
560.91	-0.00376068	-0.699249
563.31	-0.00375885	-0.699402
565.71	-0.00375702	-0.699127
568.11	-0.00375427	-0.699127
570.51	-0.00375458	-0.699188
572.91	-0.00375275	-0.699158
575.31	-0.00375122	-0.699493
577.71	-0.00374847	-0.699524
580.11	-0.00374756	-0.699432
582.51	-0.00374634	-0.699219
584.91	-0.00374451	-0.699402
587.31	-0.00374268	-0.69931
589.71	-0.00374084	-0.699127
592.11	-0.00373871	-0.699188
594.51	-0.00373688	-0.699585
596.91	-0.00373627	-0.699524
599.31	-0.00373474	-0.699188
601.71	-0.00373322	-0.699402
604.11	-0.00373077	-0.699585
606.51	-0.00372955	-0.699402
608.91	-0.00372803	-0.699158
611.31	-0.0037262	-0.699219
613.71	-0.00372467	-0.699524
616.11	-0.00372253	-0.699188
618.51	-0.00372009	-0.699493
620.91	-0.00371796	-0.699158
623.31	-0.00371552	-0.69931
625.71	-0.00371338	-0.699554
628.11	-0.00371185	-0.699158
630.51	-0.00371002	-0.699585
632.91	-0.0037088	-0.699524
635.31	-0.00370728	-0.699432
637.71	-0.00370544	-0.699524
640.11	-0.00370392	-0.699493
642.51	-0.00370239	-0.69928
644.91	-0.00369995	-0.699127
647.31	-0.00369873	-0.699097
649.71	-0.00369659	-0.699097
652.11	-0.00369507	-0.699554
654.51	-0.00369354	-0.699432
656.91	-0.00369141	-0.699554
659.31	-0.00369019	-0.699127
661.71	-0.00368866	-0.69928
664.11	-0.00368683	-0.699066
666.51	-0.0036853	-0.699402
668.91	-0.00368317	-0.699463
671.31	-0.00368042	-0.699219
673.71	-0.00367859	-0.699097
676.11	-0.00367767	-0.699127
678.51	-0.00367645	-0.699493
680.91	-0.00367462	-0.699127
683.31	-0.0036731	-0.699646
685.71	-0.00367096	-0.699249
688.11	-0.00366852	-0.699127
690.51	-0.0036673	-0.699463
692.91	-0.00366577	-0.699188
695.31	-0.00366394	-0.699585
697.71	-0.00366211	-0.699463
700.11	-0.00365997	-0.699219
702.51	-0.00365845	-0.699127
704.91	-0.00365662	-0.699158
707.31	-0.00365479	-0.699402
709.71	-0.00365265	-0.699554
712.11	-0.00365051	-0.699127
714.51	-0.00364746	-0.699646
716.91	-0.00364655	-0.699188
719.31	-0.00364441	-0.699585
721.71	-0.00364288	-0.69931
724.11	-0.00364136	-0.699219
726.51	-0.00363953	-0.699585
728.91	-0.0036377	-0.699554
731.31	-0.00363647	-0.699219
733.71	-0.00363525	-0.699219
736.11	-0.00363342	-0.699554
738.51	-0.00363159	-0.699036
740.91	-0.00363007	-0.69928
743.31	-0.00362823	-0.699188
745.71	-0.0036264	-0.699127
748.11	-0.00362457	-0.699158
750.51	-0.00362335	-0.699524
752.91	-0.00362152	-0.699371
755.31	-0.00362	-0.699524
757.71	-0.00361816	-0.699097
760.11	-0.00361664	-0.699615
762.51	-0.0036145	-0.699432
764.91	-0.00361267	-0.699127
766.41	-0.00361115	-0.699127