File: Edgar/20230619/20230619/electrodeposition_WO3_thin_films_onto_ITO_A/wo3_film_continuous_electrodeposition_B/OCP_3
Time (s)	WE(1).Potential (V)
767.421	-0.509033
770.421	-0.472595
773.421	-0.452423
776.421	-0.437836
779.421	-0.426178
782.421	-0.41626
785.421	-0.407623
788.421	-0.399811
791.421	-0.392639
794.421	-0.385925
797.421	-0.379547
800.421	-0.373474
803.421	-0.367523
806.421	-0.361755
809.421	-0.356079
812.421	-0.350464
815.421	-0.344879
818.421	-0.339325
821.421	-0.333771
824.421	-0.328339
827.421	-0.322693
830.421	-0.317078
833.421	-0.311462
836.421	-0.305847
839.421	-0.300201
842.421	-0.294525
845.421	-0.28891
848.421	-0.283325
851.421	-0.277802
854.421	-0.272278
857.421	-0.266846
860.421	-0.261536
863.421	-0.256378
866.421	-0.251312
869.421	-0.246399
872.421	-0.241669
875.421	-0.23703
878.421	-0.232574
881.421	-0.228271
884.421	-0.224152
887.421	-0.220123
890.421	-0.216187
893.421	-0.212402
896.421	-0.20874
899.421	-0.20517
902.421	-0.201691
905.421	-0.198273
908.421	-0.194946
911.421	-0.191681
914.421	-0.188477
917.421	-0.185272
920.421	-0.182129
923.421	-0.178986
926.421	-0.175873
929.421	-0.17276
932.421	-0.169617
935.421	-0.166504
938.421	-0.163361
941.421	-0.160278
944.421	-0.157074
947.421	-0.1539
950.421	-0.150696
953.421	-0.147552
956.421	-0.144379
959.421	-0.141235
962.421	-0.138062
965.421	-0.134888
968.421	-0.131744
971.421	-0.128571
974.421	-0.125397
977.421	-0.122253
980.421	-0.11911
983.421	-0.115967
986.421	-0.112762
989.421	-0.109619
992.421	-0.106476
995.421	-0.103363
998.421	-0.10025
1001.42	-0.097168
1004.42	-0.0941162
1007.42	-0.091095
1010.42	-0.0880737
1013.42	-0.0850525
1016.42	-0.0820618
1019.42	-0.079071
1022.42	-0.0760803
1025.42	-0.0730591
1028.42	-0.0700684
1031.42	-0.0670471
1034.42	-0.0639954
1037.42	-0.0609436
1040.42	-0.0578308
1043.42	-0.0546875
1046.42	-0.0515137
1049.42	-0.0482635
1052.42	-0.0449799
1055.42	-0.0416351
1058.42	-0.0382141
1061.42	-0.0347351
1064.42	-0.0311768
1067.42	-0.0275146
1070.42	-0.0237823
1073.42	-0.0199402
1076.42	-0.0160126
1079.42	-0.0119263
1082.42	-0.00773315
1085.42	-0.00339661
1088.42	0.00106201
1091.42	0.00570068
1094.42	0.010495
1097.42	0.0154694
1100.42	0.0206238
1103.42	0.0259949
1106.42	0.0315704
1109.42	0.0373535
1112.42	0.0433289
1115.42	0.04953
1118.42	0.0559692
1121.42	0.0625916
1124.42	0.069397
1127.42	0.0763245
1130.42	0.0834351
1133.42	0.0905762
1136.42	0.0978699
1139.42	0.105164
1142.42	0.112518
1145.42	0.119812
1148.42	0.127075
1151.42	0.134277
1154.42	0.141357
1157.42	0.148346
1160.42	0.155273
1163.42	0.162048
1166.42	0.168732
1169.42	0.175262
1172.42	0.181671
1175.42	0.187927
1178.42	0.194061
1181.42	0.200043
1184.42	0.205872
1187.42	0.211548
1190.42	0.21701
1193.42	0.222321
1196.42	0.227386
1199.42	0.232178
1202.42	0.236633
1205.42	0.240723
1208.42	0.244385
1211.42	0.247681
1214.42	0.250702
1217.42	0.253387
1220.42	0.25589
1223.42	0.258209
1226.42	0.260406
1229.42	0.262482
1232.42	0.264465
1235.42	0.266357
1238.42	0.268158
1241.42	0.269897
1244.42	0.271606
1247.42	0.273254
1250.42	0.274841
1253.42	0.276398
1256.42	0.277954
1259.42	0.279388
1262.42	0.280762
1265.42	0.282166
1268.42	0.283508
1271.42	0.284821
1274.42	0.286133
1277.42	0.287445
1280.42	0.288727
1283.42	0.290009
1286.42	0.291229
1289.42	0.29248
1292.42	0.293671
1295.42	0.294891
1298.42	0.296112
1301.42	0.297302
1304.42	0.298462
1307.42	0.299652
1310.42	0.300842
1313.42	0.302032
1316.42	0.303223
1319.42	0.304382
1322.42	0.305573
1325.42	0.306702
1328.42	0.307892
1331.42	0.309082
1334.42	0.310303
1337.42	0.311523
1340.42	0.312744
1343.42	0.313995
1346.42	0.315247
1349.42	0.316498
1352.42	0.317749
1355.42	0.319
1358.42	0.320251
1361.42	0.321503
1364.42	0.322815
1367.42	0.324097
1370.42	0.325378
1373.42	0.326691
1376.42	0.327972
1379.42	0.329254
1382.42	0.330536
1385.42	0.331848
1388.42	0.33313
1391.42	0.334442
1394.42	0.335724
1397.42	0.336945
1400.42	0.338196
1403.42	0.339478
1406.42	0.340698
1409.42	0.341919
1412.42	0.343109
1415.42	0.344299
1418.42	0.345428
1421.42	0.346558
1424.42	0.347656
1427.42	0.348724
1430.42	0.349792
1433.42	0.3508
1436.42	0.351776
1439.42	0.352722
1442.42	0.353638
1445.42	0.354553
1448.42	0.355438
1451.42	0.356293
1454.42	0.357147
1457.42	0.357971
1460.42	0.358734
1463.42	0.359497
1466.42	0.360291
1469.42	0.361023
1472.42	0.361694
1475.42	0.362396
1478.42	0.363068
1481.42	0.363708
1484.42	0.364288
1487.42	0.364899
1490.42	0.365509
1493.42	0.366089
1496.42	0.366638
1499.42	0.3671875
1502.42	0.367706
1505.42	0.368225
1508.42	0.368744
1511.42	0.369263
1514.42	0.369751
1517.42	0.370239
1520.42	0.370697
1523.42	0.371155
1526.42	0.371613
1529.42	0.372009
1532.42	0.372467
1535.42	0.372864
1538.42	0.37326
1541.42	0.373688
1544.42	0.374084
1547.42	0.374451
1550.42	0.374847
1553.42	0.375214
1556.42	0.37558
1559.42	0.375946
1562.42	0.376312
1565.42	0.376648
1568.42	0.376984
1571.42	0.377319
1574.42	0.377655
1577.42	0.377991
1580.42	0.378296
1583.42	0.378632
1586.42	0.378937
1589.42	0.379211
1592.42	0.379547
1595.42	0.379852
1598.42	0.380157
1601.42	0.380463
1604.42	0.380768
1607.42	0.381042
1610.42	0.381287
1613.42	0.381561
1616.42	0.381805
1619.42	0.38208
1622.42	0.382355
1625.42	0.382629
1628.42	0.382904
1631.42	0.383148
1634.42	0.383423
1637.42	0.383667
1640.42	0.383911
1643.42	0.384155
1646.42	0.38443
1649.42	0.384674
1652.42	0.384888
1655.42	0.385132
1658.42	0.385376
1661.42	0.38562
1664.42	0.385834
1666.42	0.385986