File: Edgar/20230619/20230619/electrodeposition_WO3_thin_films_onto_ITO_A/wo3_film_continuous_electrodeposition_B/OCP_1
Time (s)	WE(1).Potential (V)
5.53481	0.329102
6.53481	0.329407
7.53481	0.329681
8.53481	0.329987
9.53481	0.330261
10.5348	0.330536
11.5348	0.330841
12.5348	0.331085
13.5348	0.33139
14.5348	0.331665
15.5348	0.331848
16.5348	0.332184
17.5348	0.332489
18.5348	0.332703
19.5348	0.333038
20.5348	0.333374
21.5348	0.333679
22.5348	0.334015
23.5348	0.33432
24.5348	0.334625
25.5348	0.33493
26.5348	0.335205
27.5348	0.33551
28.5348	0.335815
29.5348	0.336121
30.5348	0.336395
31.5348	0.336578
32.5348	0.336945
33.5348	0.33725
34.5348	0.337524
35.5348	0.337799
36.5348	0.338074
37.5348	0.338348
38.5348	0.338623
39.5348	0.338898
40.5348	0.339203
41.5348	0.339447
42.5348	0.339722
43.5348	0.339966
44.5348	0.34024
45.5348	0.340485
46.5348	0.340759
47.5348	0.341034
48.5348	0.341278
49.5348	0.341553
50.5348	0.341827
51.5348	0.342072
52.5348	0.341858
53.5348	0.342255
54.5348	0.342499
55.5348	0.342773
56.5348	0.343048
57.5348	0.343323
58.5348	0.343597
59.5348	0.343842
60.5348	0.344086
61.5348	0.34436
62.5348	0.344635
63.5348	0.344879
64.5348	0.345154