File: Edgar/20240515/20240515/EC_measurements/Sample_20240502_B/CV/data/CV_1
Time (s)	Scan	WE(1).Potential (V)	WE(1).Current (A)	External(1).External 2 (V)	Q+	Q-
531.331	1	0.127411	9.49371e-07	4.01917
532.795	1	0.11261	-6.14624e-06	4.19586
534.26	1	0.083374	-1.20239e-05	4.05792
535.725	1	0.0545349	-1.99188e-05	4.13696
537.19	1	0.0277924	-2.95624e-05	3.98102
538.655	1	-0.000912476	-4.06525e-05	3.98071
540.12	1	-0.0309174	-5.24902e-05	4.01978
541.584	1	-0.0633545	-6.47583e-05	4.01978
543.049	1	-0.0913391	-7.67822e-05	3.92212
544.514	1	-0.120697	-8.71887e-05	3.98132
545.979	1	-0.150604	-9.43298e-05	3.98102
547.444	1	-0.178741	-9.65576e-05	3.72223
548.909	1	-0.209137	-9.44214e-05	3.92242
550.373	1	-0.23764	-9.07593e-05	3.96179
551.838	1	-0.266663	-8.77686e-05	3.92212
553.303	1	-0.296783	-8.63037e-05	3.82477
554.768	1	-0.325317	-8.65173e-05	3.76129
556.233	1	-0.355011	-8.83789e-05	3.7616
557.698	1	-0.383362	-9.21936e-05	3.80585
559.162	1	-0.4133	-9.79614e-05	3.72223
560.627	1	-0.442688	-0.000105072	3.60504
562.092	1	-0.470978	-0.000113068	3.6261
563.557	1	-0.500153	-0.000121735	3.48846
565.022	1	-0.476105	-3.24249e-05	3.46863
566.487	1	-0.447479	2.15363e-05	3.48816
567.952	1	-0.417847	5.40161e-05	3.64471
569.416	1	-0.388214	7.37e-05	3.50769
570.881	1	-0.358887	8.5022e-05	3.58582
572.346	1	-0.329987	9.03931e-05	3.6264
573.811	1	-0.300537	9.1095e-05	3.7027
575.276	1	-0.271942	8.81042e-05	3.66364
576.741	1	-0.24234	8.36487e-05	3.84399
578.205	1	-0.213104	7.99866e-05	3.74268
579.67	1	-0.184753	7.77283e-05	3.76129
581.135	1	-0.155457	7.67212e-05	3.88245
582.6	1	-0.126373	7.70264e-05	3.88336
584.065	1	-0.0971069	7.84302e-05	3.90259
585.53	1	-0.0673523	8.04138e-05	3.98102
586.994	1	-0.0353577	8.1665e-05	3.90259
588.459	1	-0.00595093	8.14209e-05	3.92181
589.924	1	0.0230255	7.9895e-05	3.94226
591.389	1	0.0496521	7.56531e-05	4.05853
592.854	1	0.0783997	6.40259e-05	3.98071
594.319	1	0.107422	4.17328e-05	4.05853
595.783	2	0.136536	1.79657e-05	3.98041
597.248	2	0.165863	7.46765e-06	3.98102
598.713	2	0.194702	4.19312e-06	4.05823
600.178	2	0.224518	2.83569e-06	3.98071
601.643	2	0.253296	2.19391e-06	4.05823
603.108	2	0.282318	1.79871e-06	4.05823
604.573	2	0.312286	1.44531e-06	3.96118
606.037	2	0.340668	1.12122e-06	4.01947
607.502	2	0.370361	9.62219e-07	3.98041
608.967	2	0.398834	9.1156e-07	4.0976
610.432	2	0.428131	8.1543e-07	3.9212
611.897	2	0.457428	7.70569e-07	4.11652
613.362	2	0.48645	7.2113e-07	4.19495
614.826	2	0.516205	6.41785e-07	4.11682
616.291	2	0.545197	6.69861e-07	4.11652
617.756	2	0.574341	6.55823e-07	4.01886
619.221	2	0.604095	6.71387e-07	4.13666
620.686	2	0.632416	7.14111e-07	3.96088
622.151	2	0.662262	6.61926e-07	4.07715
623.615	2	0.691162	6.67419e-07	4.1748
625.08	2	0.720612	6.20422e-07	4.07715
626.545	2	0.748901	5.91736e-07	3.9801
628.01	2	0.778198	6.40564e-07	4.01855
629.475	2	0.808105	6.46057e-07	4.07654
630.94	2	0.836182	7.00989e-07	4.11682
632.404	2	0.864868	7.49512e-07	4.07684
633.869	2	0.895691	7.30286e-07	4.01794
635.334	2	0.924683	7.49817e-07	3.99872
636.799	2	0.954285	6.96411e-07	2.77313
638.264	2	0.982666	7.09534e-07	4.11621
639.729	2	0.978394	5.19714e-07	4.05762
641.194	2	0.948181	3.68347e-07	4.09668
642.658	2	0.919189	3.41797e-07	3.99902
644.123	2	0.889893	2.76489e-07	4.07684
645.588	2	0.85968	2.15149e-07	3.95966
647.053	2	0.831604	1.66016e-07	4.03778
648.518	2	0.802307	8.8501e-08	4.01794
649.983	2	0.773926	1.09253e-07	4.03809
651.447	2	0.743713	9.39941e-08	3.8623
652.912	2	0.715546	1.18408e-07	4.15619
654.377	2	0.686188	1.33057e-07	4.00024
655.842	2	0.656799	9.44214e-08	4.09668
657.307	2	0.628296	7.00378e-08	4.19434
658.772	2	0.598694	5.49316e-10	4.15588
660.236	2	0.570007	2.37427e-08	3.9801
661.701	2	0.540009	1.13525e-08	4.07715
663.166	2	0.511627	3.72009e-08	4.11621
664.631	2	0.481903	5.8197e-08	4.09729
666.096	2	0.453186	-4.30298e-09	3.98041
667.561	2	0.423584	-2.83813e-08	3.94165
669.025	2	0.394073	-1.29059e-07	4.03931
670.49	2	0.365845	-1.53625e-07	4.05792
671.955	2	0.336304	-1.8866e-07	4.13635
673.42	2	0.307007	-2.88696e-07	3.94196
674.885	2	0.277893	-4.70886e-07	4.07684
676.35	2	0.249115	-8.99048e-07	3.96118
677.815	2	0.219391	-1.33392e-06	4.01947
679.279	2	0.190613	-1.91284e-06	4.07745
680.744	2	0.161438	-2.91687e-06	3.96149
682.209	2	0.131592	-5.3833e-06	4.05792
683.674	2	0.10257	-9.88464e-06	4.05823
685.139	2	0.0737	-1.68121e-05	4.03931
686.604	2	0.0474609	-2.565e-05	4.07867
688.068	2	0.0185577	-3.60657e-05	3.96149
689.533	2	-0.0116791	-4.71649e-05	4.13727
690.998	2	-0.0403503	-5.88379e-05	4.13635
692.463	2	-0.072052	-7.04651e-05	4.03961
693.928	2	-0.10199	-8.10242e-05	4.03931
695.393	2	-0.13089	-8.87451e-05	4.11774
696.857	2	-0.160522	-9.27124e-05	4.00055
698.322	2	-0.188904	-9.24377e-05	3.94104
699.787	2	-0.218048	-8.96301e-05	3.92273
701.252	2	-0.24707	-8.66699e-05	3.92242
702.717	2	-0.276581	-8.47778e-05	3.82385
704.182	2	-0.305573	-8.43811e-05	3.78601
705.646	2	-0.33548	-8.53882e-05	3.82477
707.111	2	-0.364868	-8.80432e-05	3.80585
708.576	2	-0.393555	-9.24988e-05	3.82507
710.041	2	-0.423157	-9.86633e-05	3.64502
711.506	2	-0.451569	-0.000106018	3.64471
712.971	2	-0.481445	-0.000114136	3.62549
714.436	2	-0.495331	-8.9325e-05	3.62579
715.9	2	-0.466034	-1.00372e-05	3.44849
717.365	2	-0.437073	3.4787e-05	3.68378
718.83	2	-0.408325	6.19507e-05	3.66455
720.295	2	-0.377899	7.8186e-05	0.67688
721.76	2	-0.349243	8.71887e-05	3.64471
723.225	2	-0.320404	9.08813e-05	3.74146
724.689	2	-0.290833	9.00574e-05	3.72192
726.154	2	-0.261902	8.63037e-05	3.66333
727.619	2	-0.233246	8.203125E-05	3.72223
729.084	2	-0.203613	7.88879e-05	3.84399
730.549	2	-0.174225	7.72095e-05	3.74146
732.014	2	-0.145935	7.67517e-05	3.80554
733.478	2	-0.115936	7.75146e-05	3.90259
734.943	2	-0.0872803	7.91931e-05	3.98041
736.408	2	-0.0582886	8.10547e-05	4.0387
737.873	2	-0.0259949	8.1665e-05	3.99994
739.338	2	0.00297852	8.07495e-05	4.01917
740.803	2	0.0324432	7.87659e-05	4.13727
742.267	2	0.0585632	7.28149e-05	3.99994
743.732	2	0.0882568	5.80139e-05	3.92212
745.197	2	0.116852	3.35266e-05	4.03992
746.662	3	0.146912	1.3443e-05	4.05914
748.127	3	0.175812	5.99976e-06	4.15588
749.592	3	0.204468	3.5614e-06	4.19495
751.057	3	0.23349	2.55554e-06	3.9801
752.521	3	0.263123	1.98364e-06	4.07806
753.986	3	0.292633	1.65131e-06	3.94165
755.451	3	0.321045	1.34399e-06	4.11652
756.916	3	0.350983	1.16394e-06	3.96149
758.381	3	0.379852	9.74731e-07	4.11682
759.846	3	0.408813	9.10339e-07	4.13635
761.31	3	0.438446	8.95081e-07	4.07776
762.775	3	0.467346	8.48083e-07	4.17511
764.24	3	0.496918	8.49915e-07	4.13666
765.705	3	0.526154	8.7738e-07	4.03778
767.17	3	0.555328	8.30078e-07	4.03839
768.635	3	0.583984	7.58972e-07	4.03809
770.099	3	0.613556	7.06482e-07	3.99933
771.564	3	0.642853	6.44836e-07	4.01825
773.029	3	0.671356	5.5603e-07	3.99933
774.494	3	0.700958	5.4657e-07	3.95996
775.959	3	0.730469	5.44434e-07	4.13635
777.424	3	0.759888	5.24902e-07	4.07715
778.888	3	0.787964	5.49927e-07	4.09698
780.353	3	0.817261	5.67627e-07	4.13574
781.818	3	0.846863	5.44739e-07	4.0387
783.283	3	0.875854	5.29785e-07	4.11621
784.748	3	0.904846	5.43213e-07	4.05762
786.213	3	0.934753	5.53284e-07	4.19403
787.678	3	0.963135	5.31616e-07	4.11652
789.142	3	0.992432	5.5542e-07	4.13544
790.607	3	0.968323	3.479e-07	4.07654
792.072	3	0.938721	2.61536e-07	4.07715
793.537	3	0.908813	2.02637e-07	4.09698
795.002	3	0.880432	2.22168e-07	4.11621
796.467	3	0.852051	1.93481e-07	4.07623
797.931	3	0.822449	1.40991e-07	4.15527
799.396	3	0.793457	1.21155e-07	4.09698
800.861	3	0.763245	5.82886e-08	4.2334
802.326	3	0.735229	3.17383e-08	4.15588
803.791	3	0.705383	5.9021e-08	4.19495
805.256	3	0.676178	3.60413e-08	4.05731
806.72	3	0.647552	5.82886e-08	4.15527
808.185	3	0.618561	9.90906e-08	4.05792
809.65	3	0.588623	6.82678e-08	4.09698
811.115	3	0.560272	4.47693e-08	3.9798
812.58	3	0.530701	2.14539e-08	4.07684
814.045	3	0.50119	-5.59387e-08	3.98041
815.509	3	0.472015	-6.7688e-08	3.90167
816.974	3	0.443573	-5.41077e-08	4.13635
818.439	3	0.414215	-8.83789e-08	4.11682
819.904	3	0.385193	-7.62634e-08	4.23401
821.369	3	0.355438	-7.98035e-08	4.05792
822.834	3	0.325958	-1.85944e-07	4.09729
824.299	3	0.297333	-3.42102e-07	4.15649
825.763	3	0.267639	-6.17676e-07	4.09729
827.228	3	0.238861	-1.01532e-06	4.05853
828.693	3	0.209259	-1.39832e-06	4.0387
830.158	3	0.18103	-1.9754e-06	4.039
831.623	3	0.150787	-3.44086e-06	4.13666
833.088	3	0.121857	-6.6803e-06	4.13696
834.552	3	0.0924377	-1.21674e-05	4.19556
836.017	3	0.0635071	-1.97571e-05	4.01917
837.482	3	0.0373444	-2.91168e-05	4.0979
838.947	3	0.00784302	-3.98529e-05	4.05914
840.412	3	-0.0207855	-5.1239e-05	4.01917
841.877	3	-0.0499481	-6.28662e-05	4.1568
843.341	3	-0.0827026	-7.42798e-05	4.05853
844.806	3	-0.111908	-8.38013e-05	3.98071
846.271	3	-0.140228	-9.00269e-05	3.96149
847.736	3	-0.169281	-9.22546e-05	3.88214
849.201	3	-0.198547	-9.08813e-05	3.98102
850.666	3	-0.227844	-8.79517e-05	3.88306
852.13	3	-0.257538	-8.53577e-05	3.94196
853.595	3	-0.286224	-8.40149e-05	3.8446
855.06	3	-0.315369	-8.4198e-05	3.8446
856.525	3	-0.344391	-8.56323e-05	3.7616
857.99	3	-0.374725	-8.88367e-05	3.88336
859.455	3	-0.403748	-9.38416e-05	3.76129
860.92	3	-0.432159	-0.000100342	3.66364
862.384	3	-0.462006	-0.000107849	3.54675
863.849	3	-0.491058	-0.000116211	3.60474
865.314	3	-0.485687	-5.62134e-05	3.60535
866.779	3	-0.456879	7.97119e-06	3.62518
868.244	3	-0.427704	4.55292e-05	3.60565
869.709	3	-0.397888	6.82068e-05	3.58551
871.173	3	-0.369751	8.1543e-05	3.703
872.638	3	-0.340302	8.84399e-05	3.5849
874.103	3	-0.311188	9.05151e-05	3.66455
875.568	3	-0.281708	8.85925e-05	3.703
877.033	3	-0.252869	8.45642e-05	3.76099
878.498	3	-0.22287	8.07495e-05	3.90198
879.962	3	-0.193848	7.8186e-05	3.74176
881.427	3	-0.164948	7.69043e-05	3.88367
882.892	3	-0.135101	7.68738e-05	3.86383
884.357	3	-0.106903	7.79114e-05	3.88275
885.822	3	-0.0771484	7.97729e-05	3.96149
887.287	3	-0.0448334	8.14209e-05	3.96149
888.751	3	-0.0165253	8.14819e-05	4.00055
890.216	3	0.0132629	8.01697e-05	4.05914
891.681	3	0.0422485	7.73926e-05	4.00055
893.146	3	0.0690308	6.89697e-05	3.96149
894.611	3	0.0973816	5.04456e-05	4.00055
895.954	3	0.124878	2.71332e-05	3.9801