File: Edgar/20240515/20240515/EC_measurements/Sample_20240502_B/CV/data/CV_2
Time (s)	Scan	WE(1).Potential (V)	WE(1).Current (A)	Q+	Q-	External(1).External 2 (V)
896.223	1	0.126587	1.96075e-05			4.07745
897.932	1	0.108093	-8.78296e-06			4.11743
899.641	1	0.0734863	-1.85059e-05			4.01947
901.35	1	0.0422852	-2.9657e-05			4.09882
903.059	1	0.00792236	-4.16931e-05			3.99963
904.768	1	-0.0263	-5.44128e-05			4.03961
906.477	1	-0.063324	-6.67419e-05			4.0979
908.186	1	-0.0966187	-7.76978e-05			4.07837
909.895	1	-0.131195	-8.5022e-05			4.0387
911.604	1	-0.164398	-8.84094e-05			3.96149
913.313	1	-0.198486	-8.72498e-05			4.01917
915.022	1	-0.232452	-8.47168e-05			3.92212
916.731	1	-0.266602	-8.26111e-05			3.90259
918.44	1	-0.301056	-8.22754e-05			3.78632
920.148	1	-0.334778	-8.34656e-05			3.78662
921.857	1	-0.369781	-8.6853e-05			3.82477
923.566	1	-0.402954	-9.24988e-05			3.78571
925.275	1	-0.437439	-0.000100128			3.60504
926.984	1	-0.471527	-0.000109009			3.54645
928.693	1	-0.505035	-0.000119019			3.60565
930.402	1	-0.539642	-0.000130646			3.48755
932.111	1	-0.571808	-0.000144531			0.431671
933.82	1	-0.598297	-0.000137207			3.3316
935.529	1	-0.563782	-4.07288e-05			3.38959
937.238	1	-0.529694	1.49109e-05			3.3902
938.947	1	-0.495361	5.09949e-05			3.35083
940.656	1	-0.461212	7.47375e-05			3.50739
942.365	1	-0.427277	9.04541e-05			3.52722
944.074	1	-0.393707	0.000100006			3.66486
945.783	1	-0.359955	0.000104736			3.64502
947.492	1	-0.325378	0.000104797			3.66394
949.201	1	-0.291718	0.000100494			3.66364
950.91	1	-0.256897	9.2865e-05			3.7027
952.619	1	-0.223297	8.56018e-05			3.72284
954.328	1	-0.189453	8.08411e-05			3.80554
956.037	1	-0.155701	7.87048e-05			3.88306
957.746	1	-0.121674	7.86438e-05			3.86353
959.455	1	-0.0870667	8.00781e-05			3.84399
961.164	1	-0.0524292	8.19092e-05			3.90167
962.873	1	-0.0159668	8.20007e-05			4.03931
964.582	1	0.0176178	8.05359e-05			3.92212
966.291	1	0.0486755	7.67822e-05			3.96118
968	1	0.0828247	6.41174e-05			4.05853
969.709	1	0.116852	3.78906e-05			3.98041
971.418	2	0.151703	1.39679e-05			4.11743
973.127	2	0.184753	5.89294e-06			4.13696
974.836	2	0.219452	3.59833e-06			4.03931
976.545	2	0.253632	2.69592e-06			4.11682
978.254	2	0.287933	2.1817e-06			4.15558
979.963	2	0.321899	1.86951e-06			4.19434
981.672	2	0.35614	1.63483e-06			4.15588
983.381	2	0.389893	1.48499e-06			4.15619
985.09	2	0.423401	1.3736e-06			4.0976
986.799	2	0.457825	1.30585e-06			4.13635
988.508	2	0.491547	1.24207e-06			4.039
990.217	2	0.52597	1.24451e-06			4.15588
991.926	2	0.560364	1.18195e-06			4.09729
993.635	2	0.593689	1.17981e-06			4.13666
995.344	2	0.628021	1.12823e-06			4.05823
997.053	2	0.662262	1.11786e-06			4.07745
998.762	2	0.695526	1.06415e-06			4.15558
1000.47	2	0.729919	1.0434e-06			4.01825
1002.18	2	0.76355	9.61609e-07			4.05731
1003.89	2	0.797424	9.09119e-07			4.13544
1005.6	2	0.831299	8.41675e-07			4.01794
1007.31	2	0.866394	8.04138e-07			4.13605
1009.02	2	0.900574	7.46765e-07			4.15497
1010.72	2	0.933838	7.61719e-07			4.19373
1012.43	2	0.968323	7.11975e-07			4.11713
1014.14	2	0.987854	6.43005e-07			4.0567
1015.85	2	0.95459	4.08936e-07			4.09698
1017.56	2	0.920715	3.52173e-07			4.13605
1019.27	2	0.88562	2.55737e-07			4.09668
1020.98	2	0.851746	2.4292e-07			4.1745
1022.69	2	0.817566	1.69067e-07			4.11591
1024.4	2	0.782166	2.14844e-07			4.15527
1026.11	2	0.749512	1.01929e-07			4.07745
1027.81	2	0.715118	1.80359e-07			4.05731
1029.52	2	0.681396	5.859375E-08			4.17542
1031.23	2	0.6474	1.49536e-07			4.05792
1032.94	2	0.613739	2.62451e-08			3.96027
1034.65	2	0.579346	1.25854e-07			4.01947
1036.36	2	0.544769	-3.20435e-09			4.07654
1038.07	2	0.510803	9.08813e-08			4.05792
1039.78	2	0.476654	-4.29993e-08			4.13635
1041.49	2	0.443146	3.90625E-08			4.09698
1043.2	2	0.408813	-9.97925e-08			4.11682
1044.9	2	0.374634	-2.99377e-08			4.15558
1046.61	2	0.340637	-1.91833e-07			4.05823
1048.32	2	0.307343	-2.21802e-07			4.11682
1050.03	2	0.273102	-5.08728e-07			4.05823
1051.74	2	0.239105	-7.55005e-07			3.98102
1053.45	2	0.205444	-1.203e-06			3.86322
1055.16	2	0.171356	-2.13959e-06			4.05823
1056.87	2	0.136597	-4.85535e-06			4.21509
1058.58	2	0.102509	-1.04462e-05			4.07806
1060.28	2	0.0686035	-1.8985e-05			4.19556
1061.99	2	0.0380035	-2.98279e-05			4.04266
1063.7	2	0.00308533	-4.23462e-05			4.13696
1065.41	2	-0.0302277	-5.5481e-05			4.01978
1067.12	2	-0.0681152	-6.89392e-05			4.05853
1068.83	2	-0.101776	-8.06885e-05			4.07837
1070.54	2	-0.135223	-8.86841e-05			3.86292
1072.25	2	-0.169342	-9.13696e-05			3.90228
1073.96	2	-0.204071	-8.97522e-05			3.96118
1075.67	2	-0.238434	-8.64258e-05			4.02008
1077.37	2	-0.272064	-8.4198e-05			3.86322
1079.08	2	-0.30603	-8.36792e-05			3.90198
1080.79	2	-0.340607	-8.49609e-05			3.96149
1082.5	2	-0.373657	-8.8623e-05			3.76068
1084.21	2	-0.4086	-9.42688e-05			3.7616
1085.92	2	-0.442444	-0.000102112			3.72223
1087.63	2	-0.476654	-0.000111084			3.62488
1089.34	2	-0.510803	-0.000121094			3.68347
1091.05	2	-0.544891	-0.000132599			3.58551
1092.76	2	-0.578918	-0.000146484			3.46863
1094.46	2	-0.593323	-0.000118713			3.3313
1096.17	2	-0.559204	-3.15918e-05			3.44818
1097.88	2	-0.524323	1.99493e-05			3.40912
1099.59	2	-0.490356	5.34668e-05			3.37036
1101.3	2	-0.456665	7.57141e-05			3.44818
1103.01	2	-0.422058	9.02405e-05			3.44818
1104.72	2	-0.388641	9.92432e-05			3.46832
1106.43	2	-0.354431	0.000103394			3.66425
1108.14	2	-0.320892	0.00010321			3.7027
1109.85	2	-0.286957	9.84802e-05			3.7027
1111.55	2	-0.252594	9.11865e-05			3.84369
1113.26	2	-0.218109	8.44727e-05			3.84399
1114.97	2	-0.184631	8.03528e-05			3.86383
1116.68	2	-0.150757	7.86438e-05			3.92212
1118.39	2	-0.11673	7.88269e-05			3.86292
1120.1	2	-0.0822754	8.06274e-05			4.07776
1121.81	2	-0.0450439	8.22449e-05			3.90259
1123.52	2	-0.0109406	8.21533e-05			3.88336
1125.23	2	0.0223602	8.04749e-05			3.98041
1126.94	2	0.0536499	7.57751e-05			4.21509
1128.64	2	0.0874329	6.05164e-05			4.11682
1130.35	2	0.121552	3.22388e-05			4.11682
1132.06	3	0.156708	1.12549e-05			4.0979
1133.77	3	0.19046	4.96216e-06			4.25385
1135.48	3	0.224426	3.18604e-06			4.23462
1137.19	3	0.257935	2.47101e-06			4.05853
1138.9	3	0.292053	2.00317e-06			4.11682
1140.61	3	0.325958	1.75537e-06			4.15619
1142.32	3	0.360443	1.50665e-06			4.23401
1144.02	3	0.394531	1.45142e-06			4.05823
1145.73	3	0.428528	1.25366e-06			4.13635
1147.44	3	0.462372	1.29791e-06			4.03839
1149.15	3	0.496063	1.13373e-06			4.15588
1150.86	3	0.530701	1.17096e-06			4.05762
1152.57	3	0.56485	1.11298e-06			4.19495
1154.28	3	0.599213	1.05927e-06			4.07745
1155.99	3	0.632538	1.05194e-06			4.17511
1157.7	3	0.667206	9.48181e-07			4.0976
1159.41	3	0.700684	9.12781e-07			4.27307
1161.11	3	0.735229	7.83386e-07			4.09668
1162.82	3	0.768127	8.12988e-07			4.2337
1164.53	3	0.802612	6.49719e-07			4.13574
1166.24	3	0.837708	7.18079e-07			3.99902
1167.95	3	0.870361	5.76782e-07			4.11621
1169.66	3	0.904236	6.39648e-07			4.13574
1171.37	3	0.939026	5.78613e-07			4.11621
1173.08	3	0.972595	6.03333e-07			4.11652
1174.79	3	0.982056	4.7821e-07			4.09637
1176.5	3	0.949402	3.05481e-07			4.19434
1178.2	3	0.914917	2.72827e-07			4.07715
1179.91	3	0.880127	1.89514e-07			4.09637
1181.62	3	0.846863	1.87073e-07			4.11682
1183.33	3	0.812683	1.13525e-07			4.17419
1185.04	3	0.776978	1.70898e-07			4.19403
1186.75	3	0.743103	5.31006e-08			4.07715
1188.46	3	0.710999	1.44043e-07			4.15619
1190.17	3	0.676056	2.59399e-08			4.13635
1191.88	3	0.642853	8.77075e-08			4.17542
1193.59	3	0.608551	4.69666e-08			4.19464
1195.29	3	0.573975	3.65601e-08			4.11682
1197	3	0.540649	4.53186e-08			4.2337
1198.71	3	0.50592	-7.14111e-09			4.19434
1200.42	3	0.471863	1.0437e-08			4.17572
1202.13	3	0.437927	-4.55322e-08			4.07715
1203.84	3	0.404755	-3.2135e-08			4.25415
1205.55	3	0.36972	-1.45508e-07			4.0387
1207.26	3	0.33667	-1.0379e-07			4.17511
1208.97	3	0.302032	-3.34991e-07			4.11804
1210.68	3	0.267975	-4.53796e-07			4.13605
1212.38	3	0.234009	-7.43408e-07			4.07776
1214.09	3	0.199829	-1.17371e-06			4.07806
1215.8	3	0.165527	-2.27814e-06			4.19495
1217.51	3	0.131897	-5.35583e-06			4.23492
1219.22	3	0.0978699	-1.1377e-05			4.05792
1220.93	3	0.0632935	-2.02698e-05			4.13666
1222.64	3	0.0329681	-3.14392e-05			4.07776
1224.35	3	-0.00171509	-4.39758e-05			4.07837
1226.06	3	-0.0350708	-5.72815e-05			4.11713
1227.76	3	-0.0728149	-7.06177e-05			4.07837
1229.47	3	-0.106201	-8.20618e-05			4.09851
1231.18	3	-0.140289	-8.9325e-05			3.98132
1232.89	3	-0.174988	-9.14307e-05			3.98102
1234.6	3	-0.208344	-8.92639e-05			3.94196
1236.31	3	-0.242554	-8.60901e-05			3.98102
1238.02	3	-0.277161	-8.40454e-05			3.90289
1239.73	3	-0.311279	-8.37708e-05			3.92181
1241.44	3	-0.345551	-8.53882e-05			3.9621
1243.15	3	-0.379181	-8.91724e-05			3.68408
1244.85	3	-0.412598	-9.52148e-05			3.7027
1246.56	3	-0.447357	-0.000103058			3.76129
1248.27	3	-0.481659	-0.000112122			3.74237
1249.98	3	-0.515625	-0.00012207			3.62518
1251.69	3	-0.548859	-0.00013385			3.60504
1253.4	3	-0.582825	-0.000147888			3.50769
1255.11	3	-0.588684	-0.000102234			3.38928
1256.82	3	-0.554108	-2.28363e-05			3.42926
1258.53	3	-0.520203	2.51068e-05			3.48816
1260.24	3	-0.486359	5.6366e-05			3.34991
1261.94	3	-0.451355	7.71484e-05			3.52692
1263.65	3	-0.415619	9.06677e-05			0.488892
1265.36	3	-0.384003	9.90295e-05			3.58551
1267.07	3	-0.350128	0.000102509			3.56628
1268.78	3	-0.315826	0.000101929			3.80585
1270.49	3	-0.28125	9.69238e-05			3.68347
1272.2	3	-0.247955	8.96912e-05			3.80524
1273.91	3	-0.213348	8.35876e-05			3.82507
1275.62	3	-0.17981	7.99255e-05			3.8443
1277.33	3	-0.145813	7.86133e-05			3.90259
1279.03	3	-0.111816	7.90405e-05			3.92212
1280.74	3	-0.0778198	8.09937e-05			3.98071
1282.45	3	-0.0405304	8.23669e-05			3.94196
1284.16	3	-0.00605469	8.203125E-05			3.98071
1285.87	3	0.0281647	8.01392e-05			3.98041
1287.58	3	0.0592041	7.44324e-05			4.13696
1289.29	3	0.0932312	5.69458e-05			4.0976
1290.88	3	0.124969	2.99805e-05			4.13727