File: Edgar/20240515/20240515/EC_measurements/Sample_20240502_B/CV/data/CV_3
Time (s)	Scan	WE(1).Potential (V)	WE(1).Current (A)	Q+	Q-	External(1).External 2 (V)
1291.14	1	0.126831	2.17804e-05			4.09821
1292.98	1	0.105591	-9.43909e-06			4.17572
1294.81	1	0.0687561	-2.02637e-05			4.11713
1296.64	1	0.0346405	-3.24371e-05			4.09729
1298.47	1	-0.00184021	-4.55078e-05			4.03931
1300.3	1	-0.0382263	-5.896e-05			4.05823
1302.13	1	-0.0779419	-7.18079e-05			4.09821
1303.96	1	-0.114502	-8.1543e-05			4.21539
1305.79	1	-0.149994	-8.69751e-05			3.94196
1307.62	1	-0.186157	-8.75244e-05			3.92242
1309.45	1	-0.223694	-8.51135e-05			3.88306
1311.29	1	-0.259277	-8.28552e-05			3.84491
1313.12	1	-0.296387	-8.21228e-05			3.84399
1314.95	1	-0.333191	-8.33435e-05			3.80524
1316.78	1	-0.369202	-8.6792e-05			3.72253
1318.61	1	-0.405762	-9.2804e-05			3.76099
1320.44	1	-0.44223	-0.0001008			3.78601
1322.27	1	-0.478821	-0.000110107			3.62549
1324.1	1	-0.515594	-0.000120605			3.54645
1325.93	1	-0.5513	-0.000133057			3.54675
1327.77	1	-0.587799	-0.000148315			3.508
1329.6	1	-0.625183	-0.000167114			3.38898
1331.43	1	-0.660461	-0.00018988			3.31177
1333.26	1	-0.697296	-0.00021579			3.19427
1335.09	1	-0.670166	-0.000118896			3.17474
1336.92	1	-0.634735	-4.69788e-05			3.17535
1338.75	1	-0.597809	2.7774e-06			3.17474
1340.58	1	-0.560638	3.87573e-05			3.1546
1342.41	1	-0.525269	6.50024e-05			3.38989
1344.24	1	-0.487762	8.41064e-05			3.40942
1346.08	1	-0.452301	9.78699e-05			3.40912
1347.91	1	-0.415863	0.000107117			3.58551
1349.74	1	-0.379486	0.000112335			3.62549
1351.57	1	-0.342621	0.000113068			3.56537
1353.4	1	-0.305664	0.000108856			3.68317
1355.23	1	-0.269104	0.000100494			3.96118
1357.06	1	-0.23349	9.14917e-05			3.74176
1358.89	1	-0.196869	8.53577e-05			3.78571
1360.72	1	-0.160522	8.26721e-05			3.96149
1362.56	1	-0.123108	8.27637e-05			3.96118
1364.39	1	-0.086731	8.44421e-05			3.94165
1366.22	1	-0.0476868	8.63037e-05			4.0979
1368.05	1	-0.0116425	8.63647e-05			4.05884
1369.88	1	0.0256134	8.45947e-05			3.96179
1371.71	1	0.0587158	7.89795e-05			4.0979
1373.54	1	0.0954285	6.06079e-05			4.15619
1375.37	2	0.132324	2.90802e-05			4.11743
1377.2	2	0.168671	1.01166e-05			4.05853
1379.03	2	0.205231	5.29175e-06			4.05823
1380.87	2	0.241516	3.80402e-06			4.07776
1382.7	2	0.277405	3.15216e-06			4.11743
1384.53	2	0.313812	2.73621e-06			4.0976
1386.36	2	0.35025	2.43713e-06			4.01947
1388.19	2	0.386963	2.2583e-06			4.07715
1390.02	2	0.423218	2.15057e-06			4.15619
1391.85	2	0.459625	2.02301e-06			4.17542
1393.68	2	0.496185	1.90247e-06			4.0979
1395.51	2	0.533569	1.83136e-06			4.11652
1397.35	2	0.570007	1.74805e-06			4.05762
1399.18	2	0.605774	1.63727e-06			4.13605
1401.01	2	0.642578	1.59302e-06			4.01855
1402.84	2	0.679138	1.5741e-06			4.15558
1404.67	2	0.715668	1.51245e-06			4.01917
1406.5	2	0.751953	1.49323e-06			4.13605
1408.33	2	0.788269	1.46301e-06			4.05823
1410.16	2	0.823975	1.3092e-06			4.01855
1411.99	2	0.861816	1.20789e-06			4.17511
1413.82	2	0.897827	1.12122e-06			4.15527
1415.66	2	0.933533	1.01715e-06			4.1748
1417.49	2	0.970154	9.51233e-07			4.1748
1419.32	2	0.982666	7.95898e-07			4.07684
1421.15	2	0.94574	5.81055e-07			4.11682
1422.98	2	0.909424	5.04456e-07			4.2334
1424.81	2	0.872192	4.23584e-07			4.23309
1426.64	2	0.837097	3.34473e-07			3.9798
1428.47	2	0.800476	2.70691e-07			4.09668
1430.3	2	0.763855	1.78833e-07			4.13605
1432.14	2	0.727325	1.52893e-07			4.0976
1433.97	2	0.690826	1.60828e-07			4.19495
1435.8	2	0.654938	1.34277e-07			4.11652
1437.63	2	0.618652	1.14746e-07			4.11682
1439.46	2	0.582123	1.13525e-07			4.15497
1441.29	2	0.545319	1.44653e-07			4.0387
1443.12	2	0.508331	1.06201e-07			4.15588
1444.95	2	0.472565	6.06995e-08			4.0976
1446.78	2	0.435516	1.69983e-08			4.15558
1448.61	2	0.398987	-8.2428e-08			4.09729
1450.45	2	0.363281	-1.17584e-07			4.0976
1452.28	2	0.326813	-1.71387e-07			4.13635
1454.11	2	0.290375	-3.15247e-07			3.9801
1455.94	2	0.253815	-4.72717e-07			4.21478
1457.77	2	0.216705	-7.83386e-07			4.11713
1459.6	2	0.180084	-1.59729e-06			4.15619
1461.43	2	0.144287	-4.00421e-06			4.25385
1463.26	2	0.107544	-9.6344e-06			4.039
1465.09	2	0.0715332	-1.8576e-05			4.17542
1466.93	2	0.0374207	-3.00568e-05			4.07837
1468.76	2	0.00132141	-4.33838e-05			4.07806
1470.59	2	-0.035788	-5.75562e-05			4.05853
1472.42	2	-0.0749207	-7.18079e-05			3.94196
1474.25	2	-0.111572	-8.34961e-05			3.90259
1476.08	2	-0.148285	-9.01489e-05			3.98071
1477.91	2	-0.183807	-9.09729e-05			3.84338
1479.74	2	-0.221283	-8.80127e-05			3.94226
1481.57	2	-0.256744	-8.50525e-05			3.80554
1483.4	2	-0.293762	-8.38623e-05			3.88367
1485.24	2	-0.330658	-8.47168e-05			3.80585
1487.07	2	-0.367126	-8.77686e-05			3.74237
1488.9	2	-0.40271	-9.34448e-05			3.74115
1490.73	2	-0.440308	-0.000101227			3.78601
1492.56	2	-0.47644	-0.000110596			3.68347
1494.39	2	-0.513031	-0.000121155			3.60596
1496.22	2	-0.54892	-0.000133698			3.56628
1498.05	2	-0.585876	-0.000149048			3.46832
1499.88	2	-0.62265	-0.000167847			3.37036
1501.71	2	-0.6586	-0.000190186			3.37036
1503.55	2	-0.695435	-0.000215668			3.21442
1505.38	2	-0.672577	-0.00012677			3.2135
1507.21	2	-0.636688	-5.33142e-05			3.17444
1509.04	2	-0.599731	-2.67914e-06			3.15552
1510.87	2	-0.56366	3.38104e-05			3.15491
1512.7	2	-0.527252	6.03943e-05			3.25256
1514.53	2	-0.490295	7.9834e-05			3.38928
1516.36	2	-0.454529	9.40552e-05			3.33099
1518.19	2	-0.417664	0.00010379			3.31177
1520.03	2	-0.380981	0.000109528			3.54675
1521.86	2	-0.344879	0.000110901			3.54706
1523.69	2	-0.308807	0.000107391			3.66394
1525.52	2	-0.271637	9.97009e-05			3.70331
1527.35	2	-0.235413	9.1095e-05			3.703
1529.18	2	-0.198456	8.52051e-05			3.92212
1531.01	2	-0.161835	8.255e-05			3.76129
1532.84	2	-0.126343	8.26721e-05			3.80615
1534.67	2	-0.0901184	8.4259e-05			4.02008
1536.5	2	-0.0529785	8.61816e-05			4.00024
1538.34	2	-0.0131744	8.63342e-05			4.0979
1540.17	2	0.0227356	8.46252e-05			3.88306
1542	2	0.0567017	7.92847e-05			4.0979
1543.83	2	0.0930786	6.13403e-05			3.96088
1545.66	3	0.1297	2.95868e-05			4.0387
1547.49	3	0.16568	1.00372e-05			3.94226
1549.32	3	0.20224	5.06897e-06			4.15649
1551.15	3	0.238556	3.63556e-06			4.11743
1552.98	3	0.274872	3.03711e-06			4.13666
1554.82	3	0.311676	2.58026e-06			4.09821
1556.65	3	0.347839	2.30072e-06			4.05823
1558.48	3	0.38446	2.09198e-06			4.13635
1560.31	3	0.4216	2.00073e-06			4.15558
1562.14	3	0.457306	1.8396e-06			4.13635
1563.97	3	0.494781	1.71082e-06			3.99963
1565.8	3	0.530945	1.62201e-06			4.11682
1567.63	3	0.567444	1.57135e-06			4.05792
1569.46	3	0.603729	1.58844e-06			4.13666
1571.29	3	0.639893	1.4859e-06			4.0979
1573.13	3	0.676117	1.4151e-06			4.01917
1574.96	3	0.712463	1.2915e-06			4.01825
1576.79	3	0.748901	1.21704e-06			3.9798
1578.62	3	0.784912	1.1264e-06			4.07745
1580.45	3	0.822754	1.08124e-06			4.09698
1582.28	3	0.859375	9.9823e-07			4.1748
1584.11	3	0.894775	9.09424e-07			4.03778
1585.94	3	0.931091	7.9834e-07			4.03778
1587.77	3	0.968018	7.94373e-07			4.07684
1589.61	3	0.986023	6.21643e-07			4.05762
1591.44	3	0.949097	4.98047e-07			4.1745
1593.27	3	0.911865	3.79944e-07			4.01825
1595.1	3	0.875244	3.01208e-07			4.15527
1596.93	3	0.840149	1.85242e-07			4.15527
1598.76	3	0.802917	1.69678e-07			3.97919
1600.59	3	0.765991	1.47705e-07			4.13666
1602.42	3	0.730347	1.87073e-07			4.01917
1604.25	3	0.693207	1.41296e-07			4.07776
1606.08	3	0.656921	1.17798e-07			4.0976
1607.92	3	0.620178	3.57056e-08			4.13666
1609.75	3	0.583954	5.21851e-08			4.07715
1611.58	3	0.548126	1.12701e-07			4.0387
1613.41	3	0.516174	5.06592e-08			0.490265
1615.24	3	0.47464	-2.58789e-08			4.03839
1617.07	3	0.43869	-3.479e-08			4.19464
1618.9	3	0.401245	-5.97839e-08			4.17511
1620.73	3	0.365784	-3.25623e-08			4.07745
1622.56	3	0.328827	-1.56952e-07			4.11774
1624.4	3	0.292755	-2.97546e-07			4.07776
1626.23	3	0.255432	-5.57861e-07			3.96149
1628.06	3	0.218903	-8.08105e-07			4.07776
1629.89	3	0.182617	-1.50665e-06			4.09821
1631.72	3	0.146271	-3.65906e-06			4.07776
1633.55	3	0.109619	-8.93555e-06			4.07837
1635.38	3	0.0737	-1.77002e-05			4.03839
1637.21	3	0.0395508	-2.9129e-05			4.05853
1639.04	3	0.00385742	-4.2395e-05			4.03992
1640.87	3	-0.0330994	-5.65186e-05			4.07837
1642.71	3	-0.0729065	-7.08618e-05			4.0979
1644.54	3	-0.108643	-8.28552e-05			4.05884
1646.37	3	-0.145416	-8.99963e-05			4.01978
1648.2	3	-0.181854	-9.12781e-05			3.99994
1650.03	3	-0.218231	-8.8562e-05			3.94226
1651.86	3	-0.255035	-8.54492e-05			3.80524
1653.69	3	-0.290833	-8.40454e-05			3.76068
1655.52	3	-0.327881	-8.46558e-05			3.8443
1657.35	3	-0.364807	-8.75854e-05			3.62579
1659.19	3	-0.400513	-9.30481e-05			3.70239
1661.02	3	-0.437531	-0.000100769			3.66455
1662.85	3	-0.473389	-0.000109863			3.66486
1664.68	3	-0.510773	-0.000120239			3.60535
1666.51	3	-0.54718	-0.000132446			3.54645
1668.34	3	-0.583496	-0.000147797			3.42926
1670.17	3	-0.620178	-0.000166565			3.3313
1672	3	-0.655762	-0.000188751			3.36975
1673.83	3	-0.692657	-0.000213684			3.29163
1675.66	3	-0.675934	-0.000132507			3.19458
1677.5	3	-0.638702	-5.72205e-05			3.17444
1679.33	3	-0.60199	-5.8197e-06			3.19458
1681.16	3	-0.566559	3.12408e-05			3.03833
1682.99	3	-0.530029	5.8136e-05			3.23273
1684.82	3	-0.493561	7.79114e-05			3.29102
1686.65	3	-0.457184	9.22546e-05			3.35052
1688.48	3	-0.420135	0.000102051			3.42865
1690.31	3	-0.383911	0.000108032			3.4491
1692.14	3	-0.34668	0.000109711			3.50708
1693.98	3	-0.310242	0.000106812			3.58551
1695.81	3	-0.274658	9.95178e-05			3.7027
1697.64	3	-0.237976	9.1217e-05			3.80585
1699.47	3	-0.201935	8.52661e-05			3.94165
1701.3	3	-0.165039	8.25806e-05			3.88306
1703.13	3	-0.128021	8.25195e-05			3.96149
1704.96	3	-0.0921021	8.4137e-05			3.90259
1706.79	3	-0.0550537	8.60596e-05			3.96149
1708.62	3	-0.0161346	8.63647e-05			3.92242
1710.45	3	0.0200714	8.47168e-05			3.98102
1712.29	3	0.0537109	7.97729e-05			4.05853
1714.12	3	0.0904846	6.28052e-05			4.01917
1715.83	3	0.124786	3.33374e-05			3.98071