File: Edgar/20240515/20240515/EC_measurements/Sample_20240502_B/CV/data/CV_4
Time (s)	Scan	WE(1).Potential (V)	WE(1).Current (A)	Q+	Q-	External(1).External 2 (V)
1716.09	1	0.126648	2.49847e-05			4.05884
1718.05	1	0.10318	-9.52148e-06			4.01917
1720	1	0.0634155	-2.15942e-05			3.9801
1721.95	1	0.0274536	-3.50311e-05			4.17572
1723.91	1	-0.0113098	-4.92859e-05			4.01978
1725.86	1	-0.0497437	-6.36597e-05			4.05853
1727.81	1	-0.0914917	-7.63245e-05			3.94196
1729.77	1	-0.130249	-8.45337e-05			4.00055
1731.72	1	-0.169373	-8.77075e-05			4.039
1733.67	1	-0.208649	-8.61816e-05			3.8446
1735.63	1	-0.247833	-8.37097e-05			3.88275
1737.58	1	-0.286285	-8.2489e-05			3.90289
1739.53	1	-0.325653	-8.3374e-05			3.80554
1741.49	1	-0.363861	-8.65173e-05			3.70331
1743.44	1	-0.403046	-9.26208e-05			3.72284
1745.39	1	-0.442047	-0.000101013			3.66394
1747.34	1	-0.48111	-0.000110931			3.42804
1749.3	1	-0.519379	-0.000122314			3.52753
1751.25	1	-0.558563	-0.000136047			3.50769
1753.2	1	-0.598267	-0.00015329			3.40881
1755.16	1	-0.636322	-0.000174255			3.29163
1757.11	1	-0.676147	-0.000198761			3.19427
1759.06	1	-0.714172	-0.000225586			3.21411
1761.02	1	-0.753723	-0.000253815			3.19458
1762.97	1	-0.797119	-0.000283081			3.05756
1764.92	1	-0.776672	-0.000193237			3.00018
1766.88	1	-0.734406	-0.000105316			3.01941
1768.83	1	-0.694733	-4.15314e-05			2.94128
1770.78	1	-0.656494	6.2561e-06			2.9599
1772.74	1	-0.616608	4.22699e-05			2.97943
1774.69	1	-0.578613	6.97632e-05			3.09631
1776.64	1	-0.539734	9.05151e-05			3.15552
1778.59	1	-0.500061	0.000105072			3.2135
1780.55	1	-0.461761	0.000114807			3.33099
1782.5	1	-0.423096	0.000121094			3.48785
1784.45	1	-0.383179	0.000124634			3.42865
1786.41	1	-0.344788	0.000124023			3.54614
1788.36	1	-0.306305	0.000118652			3.56628
1790.31	1	-0.266541	0.000109741			3.68378
1792.27	1	-0.227539	0.000101746			3.80524
1794.22	1	-0.189026	9.74731e-05			3.82477
1796.17	1	-0.149811	9.63745e-05			3.94196
1798.13	1	-0.111786	9.66492e-05			3.8443
1800.08	1	-0.0724487	9.77173e-05			3.86322
1802.03	1	-0.031015	9.81445e-05			3.94257
1803.99	1	0.00822449	9.66492e-05			3.92212
1805.94	1	0.0471588	9.28955e-05			4.02008
1807.89	1	0.0835571	7.97119e-05			4.23462
1809.84	1	0.121826	4.78821e-05			4.13666
1811.8	2	0.160553	1.72028e-05			4.1568
1813.75	2	0.200317	8.39844e-06			4.0979
1815.7	2	0.239258	5.88074e-06			4.0976
1817.66	2	0.277802	4.77295e-06			3.90167
1819.61	2	0.317017	4.05884e-06			4.13574
1821.56	2	0.355316	3.5965e-06			4.07776
1823.52	2	0.394073	3.31573e-06			4.15588
1825.47	2	0.433258	3.00537e-06			3.9209
1827.42	2	0.471954	2.80151e-06			3.98041
1829.38	2	0.511078	2.72919e-06			4.07776
1831.33	2	0.550354	2.63184e-06			4.13605
1833.28	2	0.589081	2.57294e-06			3.94135
1835.24	2	0.628082	2.42889e-06			4.03778
1837.19	2	0.666473	2.31476e-06			3.9801
1839.14	2	0.705353	2.24213e-06			4.07745
1841.09	2	0.743103	2.12463e-06			4.15497
1843.05	2	0.783081	2.07733e-06			4.11652
1845	2	0.823059	2.02576e-06			4.03809
1846.95	2	0.861206	1.9281e-06			4.07684
1848.91	2	0.899658	1.83289e-06			3.90106
1850.86	2	0.939331	1.69922e-06			3.88184
1852.81	2	0.979004	1.52557e-06			4.07654
1854.77	2	0.973511	1.1795e-06			3.9212
1856.72	2	0.933228	9.09729e-07			4.15497
1858.67	2	0.894775	6.9519e-07			4.03809
1860.63	2	0.856323	6.17371e-07			3.99933
1862.58	2	0.81665	5.27344e-07			4.17511
1864.53	2	0.777893	4.58069e-07			4.15619
1866.49	2	0.740173	4.12903e-07			4.11652
1868.44	2	0.700653	2.97546e-07			4.13666
1870.39	2	0.661346	2.48108e-07			4.15588
1872.34	2	0.62265	1.9989e-07			4.15558
1874.3	2	0.583618	1.41907e-07			4.0976
1876.25	2	0.544739	1.62964e-07			4.09729
1878.2	2	0.50592	1.52588e-07			4.11743
1880.16	2	0.46759	1.14746e-07			3.9801
1882.11	2	0.428131	1.13525e-07			4.17603
1884.06	2	0.389954	3.39966e-08			4.01886
1886.02	2	0.350952	-6.67114e-08			4.01917
1887.97	2	0.311371	-1.65222e-07			4.11682
1889.92	2	0.272675	-3.83301e-07			4.11682
1891.88	2	0.23407	-5.87769e-07			3.99994
1893.83	2	0.195007	-1.11328e-06			4.07745
1895.78	2	0.15567	-2.85492e-06			4.15649
1897.74	2	0.117157	-7.75146e-06			4.15588
1899.69	2	0.0780029	-1.66199e-05			4.01886
1901.64	2	0.0426727	-2.85614e-05			4.05884
1903.59	2	0.00320435	-4.2691e-05			4.09851
1905.55	2	-0.0359192	-5.78918e-05			4.03961
1907.5	2	-0.0774231	-7.30591e-05			4.02008
1909.45	2	-0.115997	-8.49609e-05			3.92242
1911.41	2	-0.155273	-9.09119e-05			3.94135
1913.36	2	-0.193878	-9.05151e-05			3.9621
1915.31	2	-0.233459	-8.71887e-05			3.94226
1917.27	2	-0.2724	-8.47473e-05			3.80554
1919.22	2	-0.310272	-8.44116e-05			3.80554
1921.17	2	-0.350372	-8.65173e-05			3.90259
1923.13	2	-0.388641	-9.1156e-05			3.68408
1925.08	2	-0.427979	-9.85413e-05			3.62518
1927.03	2	-0.467041	-0.000107971			3.68408
1928.99	2	-0.505219	-0.000118866			3.62518
1930.94	2	-0.544006	-0.000131897			3.60535
1932.89	2	-0.583221	-0.000148499			3.48755
1934.84	2	-0.62204	-0.000168976			3.42834
1936.8	2	-0.660858	-0.000192993			3.31146
1938.75	2	-0.699432	-0.00021933			3.19489
1940.7	2	-0.738892	-0.000246704			3.23425
1942.66	2	-0.78186	-0.000274536			3.19397
1944.61	2	-0.790405	-0.000237732			3.07678
1946.56	2	-0.748779	-0.000136414			3.11554
1948.52	2	-0.709961	-6.54602e-05			2.96082
1950.47	2	-0.670166	-1.28479e-05			2.98035
1952.42	2	-0.631378	2.66693e-05			3.0777
1954.38	2	-0.592651	5.66101e-05			3.09601
1956.33	2	-0.553589	7.94373e-05			3.21381
1958.28	2	-0.515015	9.62524e-05			3.19427
1960.23	2	-0.476257	0.000107727			3.2724
1962.19	2	-0.436768	0.000115387			3.44818
1964.14	2	-0.397858	0.000120087			3.40912
1966.09	2	-0.359833	0.000121124			3.58612
1968.05	2	-0.321014	0.000117706			3.66394
1970	2	-0.281586	0.000110565			3.62488
1971.95	2	-0.242981	0.000102478			3.74237
1973.91	2	-0.204102	9.729e-05			3.76007
1975.86	2	-0.164581	9.53674e-05			3.78601
1977.81	2	-0.126282	9.53674e-05			3.98132
1979.77	2	-0.0866089	9.63135e-05			3.90259
1981.72	2	-0.0455963	9.72595e-05			4.01947
1983.67	2	-0.00668335	9.64966e-05			3.82538
1985.63	2	0.0329559	9.3811e-05			3.96118
1987.58	2	0.0690308	8.54492e-05			4.05884
1989.53	2	0.108032	6.00281e-05			4.0979
1991.48	3	0.146301	2.39014e-05			4.07837
1993.44	3	0.18576	9.48792e-06			4.03809
1995.39	3	0.224335	5.98145e-06			3.99963
1997.34	3	0.262787	4.73633e-06			4.11774
1999.3	3	0.302673	4.02832e-06			4.01978
2001.25	3	0.340668	3.56201e-06			4.11652
2003.2	3	0.380371	3.11768e-06			3.96118
2005.16	3	0.419037	2.84729e-06			4.09698
2007.11	3	0.457214	2.62207e-06			4.07776
2009.06	3	0.49704	2.51526e-06			4.09698
2011.02	3	0.536011	2.42889e-06			3.97949
2012.97	3	0.574127	2.35229e-06			4.0387
2014.92	3	0.613068	2.19635e-06			4.05853
2016.88	3	0.651947	2.09381e-06			3.95477
2018.83	3	0.690887	1.96869e-06			4.07745
2020.78	3	0.729553	1.95831e-06			4.15497
2022.73	3	0.768127	1.90002e-06			4.07684
2024.69	3	0.8078	1.75293e-06			4.05731
2026.64	3	0.847168	1.58264e-06			4.03778
2028.59	3	0.885925	1.41754e-06			4.09729
2030.55	3	0.924988	1.39282e-06			3.99872
2032.5	3	0.96283	1.31439e-06			3.97919
2034.45	3	0.988159	1.05927e-06			4.03809
2036.41	3	0.948792	7.39746e-07			4.01794
2038.36	3	0.908813	5.29175e-07			4.11652
2040.31	3	0.870667	4.88281e-07			4.07715
2042.27	3	0.831299	4.41284e-07			3.96057
2044.22	3	0.793457	3.15857e-07			4.01855
2046.17	3	0.753784	2.63062e-07			3.90137
2048.13	3	0.714935	1.86462e-07			4.11682
2050.08	3	0.676086	2.23083e-07			3.94043
2052.03	3	0.63739	2.20947e-07			3.96057
2053.98	3	0.598358	1.55029e-07			4.07745
2055.94	3	0.559265	1.03149e-07			4.09698
2057.89	3	0.520599	4.3335e-08			3.9798
2059.84	3	0.482513	5.88989e-08			4.03839
2061.8	3	0.44278	5.2002e-08			4.11713
2063.75	3	0.403839	4.64172e-08			4.05792
2065.7	3	0.365601	-4.33655e-08			4.09698
2067.66	3	0.326233	-1.51062e-07			4.05823
2069.61	3	0.28775	-3.06458e-07			4.09821
2071.56	3	0.249146	-5.31006e-07			3.96057
2073.52	3	0.209412	-8.45337e-07			3.96118
2075.47	3	0.170715	-1.91284e-06			4.01917
2077.42	3	0.131378	-5.36499e-06			4.09821
2079.38	3	0.0931091	-1.27716e-05			4.0387
2081.33	3	0.0541382	-2.3645e-05			4.02008
2083.28	3	0.0181396	-3.71124e-05			4.01978
2085.23	3	-0.0206543	-5.19104e-05			4.03931
2087.19	3	-0.0621948	-6.73218e-05			3.88275
2089.14	3	-0.101654	-8.11768e-05			3.92242
2091.09	3	-0.140717	-8.96606e-05			3.96149
2093.05	3	-0.179413	-9.16138e-05			3.90167
2095	3	-0.217865	-8.87756e-05			3.8446
2096.95	3	-0.257629	-8.56018e-05			3.74176
2098.91	3	-0.296539	-8.45032e-05			3.7616
2100.86	3	-0.335052	-8.56323e-05			3.7027
2102.81	3	-0.374054	-8.91724e-05			3.64441
2104.77	3	-0.413147	-9.53979e-05			3.66394
2106.72	3	-0.452301	-0.000104095			3.703
2108.67	3	-0.490845	-0.000114563			3.52753
2110.63	3	-0.529785	-0.000126678			3.46802
2112.58	3	-0.569031	-0.000141876			3.37067
2114.53	3	-0.608063	-0.000161102			3.42865
2116.48	3	-0.646759	-0.000184174			3.29163
2118.44	3	-0.685852	-0.000209961			3.17505
2120.39	3	-0.724701	-0.000236786			3.11584
2122.34	3	-0.766907	-0.000263611			3.01941
2124.3	3	-0.805664	-0.000290833			3.0188
2126.25	3	-0.767822	-0.000168243			2.97974
2128.2	3	-0.724304	-8.84094e-05			2.901
2130.16	3	-0.685242	-3.02368e-05			2.96021
2132.11	3	-0.646484	1.33636e-05			2.97943
2134.06	3	-0.607239	4.62585e-05			3.09662
2136.02	3	-0.568054	7.12891e-05			3.13538
2137.97	3	-0.529236	8.99963e-05			3.15521
2139.92	3	-0.491119	0.000102936			3.27179
2141.88	3	-0.451996	0.000111603			3.37006
2143.83	3	-0.412659	0.000117126			3.52692
2145.78	3	-0.373871	0.000119537			3.52661
2147.73	3	-0.335449	0.000117706			3.58521
2149.69	3	-0.295807	0.000112			3.6441
2151.64	3	-0.257751	0.000104248			3.72192
2153.59	3	-0.217926	9.8175e-05			3.703
2155.55	3	-0.179932	9.5459e-05			3.76038
2157.5	3	-0.140015	9.48181e-05			3.84399
2159.45	3	-0.101044	9.53674e-05			3.84399
2161.41	3	-0.0631714	9.64966e-05			3.90228
2163.36	3	-0.0213074	9.64355e-05			3.92273
2165.31	3	0.0176147	9.43604e-05			3.98102
2167.27	3	0.053772	8.92639e-05			3.9209
2169.22	3	0.0933228	7.1106e-05			3.94135
2170.81	3	0.124176	4.24194e-05			4.15619