File: Edgar/20240515/20240515/EC_measurements/Sample_20240502_B/CV/data/CV_5
Time (s)	Scan	WE(1).Potential (V)	WE(1).Current (A)	Q+	Q-	External(1).External 2 (V)
2171.07	1	0.127594	3.29041e-05			3.96118
2173.15	1	0.100616	-8.10852e-06			4.11743
2175.23	1	0.0584106	-2.20886e-05			4.05792
2177.3	1	0.0201111	-3.70087e-05			4.01947
2179.38	1	-0.0211578	-5.25513e-05			4.01978
2181.45	1	-0.0655518	-6.80237e-05			3.92212
2183.53	1	-0.106903	-7.9834e-05			3.96179
2185.6	1	-0.147308	-8.64868e-05			3.88336
2187.68	1	-0.189758	-8.72498e-05			3.88275
2189.75	1	-0.230927	-8.47168e-05			3.7616
2191.83	1	-0.272186	-8.29468e-05			3.8443
2193.9	1	-0.312805	-8.31299e-05			3.78632
2195.98	1	-0.354156	-8.59985e-05			3.60565
2198.05	1	-0.396088	-9.14307e-05			3.72284
2200.13	1	-0.437653	-9.9884e-05			3.56567
2202.2	1	-0.479126	-0.00011026			3.52722
2204.28	1	-0.520294	-0.000122498			3.58612
2206.35	1	-0.561218	-0.000137817			3.48816
2208.43	1	-0.603119	-0.000157288			3.36975
2210.5	1	-0.64447	-0.000180573			3.3316
2212.58	1	-0.685181	-0.000206238			3.27209
2214.65	1	-0.727173	-0.000232697			3.21381
2216.73	1	-0.772705	-0.000259552			3.07709
2218.8	1	-0.812073	-0.000287445			2.82318
2220.88	1	-0.854797	-0.000317902			2.90131
2222.95	1	-0.896301	-0.000350616			2.80426
2225.03	1	-0.872803	-0.000252502			2.72614
2227.11	1	-0.83313	-0.000152985			2.78412
2229.18	1	-0.791626	-7.724e-05			2.76459
2231.26	1	-0.745667	-1.95374e-05			2.88208
2233.33	1	-0.704071	2.52502e-05			2.74567
2235.41	1	-0.663849	6.01196e-05			2.82257
2237.48	1	-0.621735	8.8623e-05			2.92114
2239.56	1	-0.580994	0.000111237			2.99957
2241.63	1	-0.538757	0.000128784			3.15582
2243.71	1	-0.497894	0.000140137			3.17505
2245.78	1	-0.456116	0.000145874			3.29132
2247.86	1	-0.415649	0.000146606			3.37036
2249.93	1	-0.37384	0.000144318			3.42865
2252.01	1	-0.332611	0.000138428			3.40912
2254.08	1	-0.291656	0.000131134			3.62518
2256.16	1	-0.249969	0.000125214			3.76038
2258.23	1	-0.209076	0.000123352			3.72284
2260.31	1	-0.166718	0.000124146			3.74176
2262.38	1	-0.126404	0.000125275			3.76099
2264.46	1	-0.0842285	0.000125			3.78571
2266.53	1	-0.0405365	0.00012323			3.80463
2268.61	1	0.00108337	0.000118744			3.88336
2270.68	1	0.0430237	0.000112183			3.90228
2272.76	1	0.0809631	9.85413e-05			4.11774
2274.83	1	0.12265	6.41174e-05			4.01978
2276.91	2	0.16391	2.34436e-05			4.05853
2278.98	2	0.205048	1.11298e-05			3.82446
2281.06	2	0.246704	8.08411e-06			3.90198
2283.14	2	0.286987	6.50635e-06			4.01855
2285.21	2	0.329468	5.69153e-06			4.01947
2287.29	2	0.370544	4.97131e-06			3.96027
2289.36	2	0.411835	4.47998e-06			4.05823
2291.44	2	0.452667	4.21448e-06			4.0979
2293.51	2	0.494171	3.96729e-06			3.92181
2295.59	2	0.535095	3.86292e-06			4.05792
2297.66	2	0.576569	3.67279e-06			4.01855
2299.74	2	0.618622	3.65967e-06			3.96088
2301.81	2	0.659912	3.43292e-06			3.96027
2303.89	2	0.701263	3.35388e-06			4.09729
2305.96	2	0.742584	3.25195e-06			3.94135
2308.04	2	0.782471	3.0954e-06			4.01917
2310.11	2	0.823669	3.00415e-06			4.11682
2312.19	2	0.865173	2.82654e-06			3.88184
2314.26	2	0.907898	2.71454e-06			4.03839
2316.34	2	0.948792	2.52411e-06			4.13574
2318.41	2	0.98999	2.34619e-06			3.97949
2320.49	2	0.958252	1.70959e-06			4.03809
2322.56	2	0.916748	1.38977e-06			4.09698
2324.64	2	0.874939	1.10229e-06			3.94165
2326.71	2	0.83374	9.4574e-07			4.0387
2328.79	2	0.792542	7.78198e-07			3.97949
2330.86	2	0.750427	7.11365e-07			4.19525
2332.94	2	0.711029	5.36499e-07			3.96057
2335.01	2	0.668701	5.40466e-07			4.01886
2337.09	2	0.62738	3.65601e-07			4.01886
2339.17	2	0.586761	4.1687e-07			4.15558
2341.24	2	0.545715	2.58484e-07			4.01855
2343.32	2	0.503876	2.91748e-07			4.07776
2345.39	2	0.462646	1.92566e-07			3.98041
2347.47	2	0.420807	1.58997e-07			4.05762
2349.54	2	0.379608	1.0376e-07			3.98041
2351.62	2	0.338898	1.20239e-08			4.09821
2353.69	2	0.297882	-9.62219e-08			3.82446
2355.77	2	0.255463	-3.22266e-07			4.05853
2357.84	2	0.215088	-6.5033e-07			3.94073
2359.92	2	0.173737	-1.77704e-06			3.88245
2361.99	2	0.136353	-5.51147e-06			0.48587
2364.07	2	0.0911865	-1.35681e-05			3.90198
2366.14	2	0.0493164	-2.5412e-05			3.94165
2368.22	2	0.011203	-3.99658e-05			3.96149
2370.29	2	-0.0311737	-5.59692e-05			4.01917
2372.37	2	-0.0748901	-7.22961e-05			3.88336
2374.44	2	-0.115509	-8.52356e-05			3.88306
2376.52	2	-0.157959	-9.13696e-05			3.86383
2378.59	2	-0.19931	-9.05762e-05			3.96149
2380.67	2	-0.240601	-8.69751e-05			3.90228
2382.74	2	-0.281555	-8.49304e-05			3.76099
2384.82	2	-0.322601	-8.51746e-05			3.60504
2386.89	2	-0.364746	-8.83484e-05			3.60535
2388.97	2	-0.405579	-9.41772e-05			3.60474
2391.05	2	-0.446472	-0.000102936			3.54675
2393.12	2	-0.488129	-0.000113617			3.48785
2395.2	2	-0.530273	-0.000126343			3.50739
2397.27	2	-0.571625	-0.000142914			3.46832
2399.35	2	-0.612518	-0.000164215			3.40912
2401.42	2	-0.654022	-0.000189728			3.31146
2403.5	2	-0.695435	-0.000217468			3.21442
2405.57	2	-0.73642	-0.000245422			3.13568
2407.65	2	-0.780334	-0.000273071			3.00018
2409.72	2	-0.822144	-0.000300903			2.96021
2411.8	2	-0.863647	-0.000330109			2.98035
2413.87	2	-0.904541	-0.000360382			2.7652
2415.95	2	-0.863647	-0.000227417			2.82257
2418.02	2	-0.822144	-0.00013504			2.76459
2420.1	2	-0.78125	-6.48193e-05			2.72644
2422.17	2	-0.735535	-1.13251e-05			2.68677
2424.25	2	-0.694641	3.0191e-05			2.72583
2426.32	2	-0.653076	6.28967e-05			2.84302
2428.4	2	-0.612122	8.96912e-05			2.94037
2430.47	2	-0.570557	0.000110931			3.078
2432.55	2	-0.529938	0.000127075			3.11615
2434.62	2	-0.487793	0.000136963			3.15613
2436.7	2	-0.446686	0.000141449			3.27209
2438.77	2	-0.405853	0.000141571			3.33038
2440.85	2	-0.364655	0.000138794			3.36975
2442.92	2	-0.322449	0.000132721			3.54645
2445	2	-0.281036	0.000126007			3.64441
2447.08	2	-0.240417	0.000121521			3.70209
2449.15	2	-0.19873	0.000120544			3.72253
2451.23	2	-0.157288	0.000121643			3.74115
2453.3	2	-0.116669	0.000122406			3.84399
2455.38	2	-0.0744629	0.000121857			3.86353
2457.45	2	-0.0310913	0.000119598			3.82477
2459.53	2	0.0106659	0.000114716			3.92181
2461.6	2	0.0497742	0.00010733			3.86322
2463.68	2	0.0906677	8.96606e-05			4.05823
2465.75	3	0.132355	4.98657e-05			4.01855
2467.83	3	0.173065	1.71936e-05			3.92151
2469.9	3	0.2146	9.42383e-06			3.96149
2471.98	3	0.255463	6.99768e-06			4.07806
2474.05	3	0.296814	5.9082e-06			3.98071
2476.13	3	0.33844	5.02625e-06			4.01917
2478.2	3	0.380096	4.52576e-06			4.01917
2480.28	3	0.4216	4.01306e-06			4.039
2482.35	3	0.462402	3.8913e-06			4.0387
2484.43	3	0.504486	3.59467e-06			4.01917
2486.5	3	0.545715	3.55682e-06			3.96027
2488.58	3	0.586426	3.31757e-06			3.98071
2490.65	3	0.627747	3.28247e-06			4.01825
2492.73	3	0.66864	3.11218e-06			4.05792
2494.8	3	0.710541	3.02063e-06			4.05762
2496.88	3	0.750732	2.93274e-06			4.09698
2498.95	3	0.792542	2.81525e-06			4.07745
2501.03	3	0.83374	2.69073e-06			3.99963
2503.11	3	0.875244	2.49268e-06			4.15558
2505.18	3	0.917969	2.32147e-06			3.90137
2507.26	3	0.957642	2.10968e-06			4.21387
2509.33	3	0.990601	1.86371e-06			3.99933
2511.41	3	0.949707	1.30585e-06			4.13574
2513.48	3	0.907898	1.06537e-06			3.94073
2515.56	3	0.865173	8.20618e-07			3.94135
2517.63	3	0.825195	7.15332e-07			3.97949
2519.71	3	0.783386	5.69458e-07			4.07715
2521.78	3	0.742737	5.20935e-07			4.01825
2523.86	3	0.700653	4.20532e-07			4.11652
2525.93	3	0.659546	3.9917e-07			4.07745
2528.01	3	0.618408	3.14026e-07			3.96088
2530.08	3	0.576965	3.0426e-07			4.0976
2532.16	3	0.536194	2.24304e-07			3.96027
2534.23	3	0.49472	2.22473e-07			4.039
2536.31	3	0.453217	1.40991e-07			3.96118
2538.38	3	0.411407	1.22986e-07			4.039
2540.46	3	0.370667	6.20422e-08			3.94196
2542.53	3	0.328583	-5.63354e-08			4.01886
2544.61	3	0.286652	-1.2149e-07			4.13696
2546.68	3	0.246033	-4.45251e-07			3.88275
2548.76	3	0.205048	-7.58057e-07			4.039
2550.83	3	0.163849	-2.34985e-06			4.039
2552.91	3	0.122162	-6.86951e-06			4.07806
2554.99	3	0.0813904	-1.59485e-05			3.94104
2557.06	3	0.0425507	-2.8299e-05			3.92212
2559.14	3	0.000708008	-4.33258e-05			3.88367
2561.21	3	-0.0407013	-5.94177e-05			3.90198
2563.29	3	-0.0843201	-7.56836e-05			3.94135
2565.36	3	-0.12558	-8.73108e-05			3.90167
2567.44	3	-0.166931	-9.20105e-05			3.84399
2569.51	3	-0.208679	-9.00269e-05			3.86414
2571.59	3	-0.250092	-8.66089e-05			3.80493
2573.66	3	-0.291687	-8.5022e-05			3.66394
2575.74	3	-0.332733	-8.59985e-05			3.72162
2577.81	3	-0.374207	-8.95691e-05			3.66486
2579.89	3	-0.415161	-9.59167e-05			3.74207
2581.96	3	-0.456543	-0.000105042			3.66455
2584.04	3	-0.498505	-0.000115906			3.52722
2586.11	3	-0.539032	-0.000129486			3.54645
2588.19	3	-0.581329	-0.000147217			3.37006
2590.26	3	-0.622314	-0.000169952			3.3313
2592.34	3	-0.663055	-0.000196564			3.2724
2594.41	3	-0.704498	-0.000224701			3.17566
2596.49	3	-0.745789	-0.000252411			3.19458
2598.56	3	-0.791016	-0.00027951			3.07709
2600.64	3	-0.832825	-0.000307037			2.90192
2602.71	3	-0.872803	-0.000334961			2.88208
2604.79	3	-0.895691	-0.000319031			2.78473
2606.86	3	-0.853882	-0.000199951			2.76459
2608.94	3	-0.813293	-0.00011441			2.74536
2611.02	3	-0.771179	-4.91943e-05			2.74536
2613.09	3	-0.725983	6.74438e-08			2.80334
2615.17	3	-0.685577	3.8504e-05			2.84332
2617.24	3	-0.643707	6.87866e-05			2.86255
2619.32	3	-0.6026	9.3811e-05			3.05878
2621.39	3	-0.561554	0.000113373			3.11584
2623.47	3	-0.519958	0.000127777			3.21381
2625.54	3	-0.478027	0.000136047			3.19427
2627.62	3	-0.437531	0.000139191			3.2724
2629.69	3	-0.395691	0.00013855			3.42896
2631.77	3	-0.354523	0.000134949			3.56598
2633.84	3	-0.313477	0.000128876			3.56628
2635.92	3	-0.272217	0.00012265			3.66425
2637.99	3	-0.230011	0.000119629			3.72192
2640.07	3	-0.189331	0.000119415			3.74207
2642.14	3	-0.147766	0.000120697			3.7854
2644.22	3	-0.106964	0.000121002			3.88306
2646.29	3	-0.0646973	0.000120117			3.84369
2648.37	3	-0.0209839	0.000117218			3.98071
2650.44	3	0.0201294	0.000111694			3.86322
2652.52	3	0.0585022	0.000103058			3.88275
2654.59	3	0.100647	8.05664e-05			4.05792
2655.81	3	0.125061	5.64575e-05			4.05884