File: Edgar/20240515/20240515/EC_measurements/Sample_20240502_B/CV/data/OCP_3
Time (s)	WE(1).Potential (V)	External(1).External 2 (V)
2656.83	0.0898132	4.06342
2657.83	0.0827942	3.96606
2658.83	0.0776367	4.10248
2659.83	0.0735779	4.04327
2660.83	0.0702515	4.02405
2661.83	0.0674744	3.98468
2662.83	0.065094	3.94684
2663.83	0.0629883	4.00421
2664.83	0.0611572	4.12231
2665.83	0.0595093	4.02405
2666.83	0.0580444	4.16046
2667.83	0.0567627	4.02496
2668.83	0.0555725	4.04388
2669.83	0.0545044	4.02527
2670.83	0.0534668	3.98499
2671.83	0.0525818	4.12201
2672.83	0.0517273	4.10248
2673.83	0.0509338	3.96576
2674.83	0.0502319	4.06342
2675.83	0.0495605	3.98529
2676.83	0.0488983	3.96545
2677.83	0.0483307	4.04388
2678.83	0.0477844	3.9859
2679.83	0.0472534	3.88733
2680.83	0.0467712	4.00482
2681.83	0.0463287	3.96576
2682.83	0.0459015	4.06311
2683.83	0.0454987	3.96545
2684.83	0.0451202	3.98529
2685.83	0.0447723	4.10309
2686.83	0.0444244	4.08264
2687.83	0.0440796	4.06311
2688.83	0.0437836	4.08325
2689.83	0.0434723	4.04358
2690.83	0.0432037	3.8681
2691.83	0.0429321	3.96606
2692.83	0.0426544	4.04327
2693.83	0.0424286	4.06311
2694.83	0.0421906	3.96606
2695.83	0.0419647	4.08295
2696.83	0.0417267	4.02466
2697.83	0.0415314	4.04388
2698.83	0.0413086	4.02435
2699.83	0.0411285	4.10309
2700.83	0.0409393	4.08295
2701.83	0.040741	4.04327
2702.83	0.0405884	3.9856
2703.83	0.0404266	4.04449
2704.83	0.0402527	4.06372
2705.83	0.0401093	4.16229
2706.83	0.0399628	4.12231
2707.83	0.0398224	4.02435
2708.83	0.0396942	4.00482
2709.83	0.0395752	4.04419
2710.83	0.0394653	3.9856
2711.83	0.039328	3.94623
2712.83	0.0392181	3.98529
2713.83	0.0391144	4.06281
2714.83	0.0390137	4.10248
2715.83	0.0389221	3.94653
2716.83	0.0388458	4.06311
2717.83	0.038736	3.9856
2718.83	0.0386536	4.04388
2719.83	0.0385773	4.02405
2720.83	0.0384979	4.02435
2721.83	0.0384125	3.94714
2722.83	0.0383331	3.96515
2723.83	0.038266	3.94653
2724.83	0.038205	4.08264
2725.83	0.0381439	3.92609
2726.83	0.0380737	3.96576
2727.83	0.0380035	4.02405
2728.83	0.0379333	4.04297
2729.83	0.0378662	3.98529
2730.83	0.0378296	4.16107
2731.83	0.0377686	4.08356
2732.83	0.0377075	4.06311
2733.83	0.037674	3.96637
2734.83	0.0376068	4.06281
2735.83	0.0375549	4.02435
2736.83	0.0375031	3.98529
2737.83	0.0374847	4.16107
2738.83	0.0374512	3.96606
2739.83	0.0374207	4.06311
2740.83	0.0373718	4.02405
2741.83	0.0373413	4.04388
2742.83	0.0373108	4.00452
2743.83	0.0373047	3.9856
2744.83	0.0372772	4.02435
2745.83	0.0372528	4.06311
2746.83	0.0372131	4.10278
2747.83	0.0372101	3.9856
2748.83	0.0371887	3.90686
2749.83	0.0371704	4.08264
2750.83	0.0371613	3.96637
2751.83	0.0371307	3.9856
2752.83	0.0371216	4.04388
2753.83	0.0371277	4.06311
2754.83	0.0371155	3.96606
2755.83	0.0371155	3.9859
2756.83	0.0371094	4.02405
2757.83	0.0371033	3.92639
2758.83	0.0371002	4.10309
2759.83	0.0370972	3.9859
2760.83	0.0370941	4.02435
2761.83	0.0370911	4.04449
2762.83	0.037088	3.98529
2763.83	0.0370911	3.96667
2764.83	0.0370911	4.08264
2765.83	0.037088	4.04388
2766.83	0.0370911	4.02466
2767.83	0.0370758	4.06281
2768.83	0.0370789	3.98499
2769.83	0.0370819	3.98499
2770.83	0.037088	4.06281
2771.83	0.0370941	3.86749
2772.83	0.0371216	3.94653
2773.83	0.0371124	3.96545
2774.83	0.0371216	4.08295
2775.83	0.0371307	4.06311
2776.83	0.0371399	3.96545
2777.83	0.0371521	4.06281
2778.83	0.0371643	3.9856
2779.83	0.0371735	3.98499
2780.83	0.0371887	4.00513
2781.83	0.037204	4.10309
2782.83	0.0372162	3.96545
2783.83	0.0372345	4.10278
2784.83	0.0372498	3.9856
2785.83	0.037265	4.00482
2786.83	0.0372925	4.08234
2787.83	0.0373199	3.9859
2788.83	0.0373383	4.12262
2789.83	0.0373474	3.94653
2790.83	0.0373901	3.98529
2791.83	0.0374023	3.88733
2792.83	0.0374237	4.00513
2793.83	0.0374634	3.96576
2794.83	0.0374939	4.04388
2795.83	0.0375	4.02435
2796.83	0.0375427	3.9267
2797.83	0.0375458	3.96606
2798.83	0.0375641	4.06311
2799.83	0.0375854	4.00482
2800.83	0.0376099	4.10217
2801.83	0.0376587	3.9267
2802.83	0.0376831	3.96606
2803.83	0.0377075	3.94684
2804.83	0.037738	4.08295
2805.83	0.0377625	3.96637
2806.83	0.037793	3.96576
2807.83	0.0378052	3.96454
2808.83	0.0378357	4.00482
2809.83	0.0378662	4.04358
2810.83	0.0378937	3.98529
2811.83	0.0379242	4.02374
2812.83	0.0379761	3.94714
2813.83	0.0380096	3.84918
2814.83	0.0380432	3.88794
2815.83	0.0380585	3.92639
2816.83	0.0380951	4.06311
2817.83	0.0381287	4.1037
2818.83	0.0381622	4.04419
2819.83	0.0381958	3.90686
2820.83	0.0382355	3.92731
2821.83	0.0382782	4.06311
2822.83	0.038324	4.14215
2823.83	0.0383606	4.00513
2824.83	0.038382	4.06281
2825.83	0.0384369	3.9267
2826.83	0.0384766	4.06342
2827.83	0.0384979	4.08325
2828.83	0.0385376	3.9856
2829.83	0.0385803	3.98499
2830.83	0.038623	4.10339
2831.83	0.0386627	3.927
2832.83	0.0386993	4.06281
2833.83	0.0387421	3.96606
2834.83	0.0387848	3.96606
2835.83	0.0388489	3.98529