File: Edgar/20240515/20240515/EC_measurements/Sample_20240502_B/CV/data/OCP_1
Time (s)	WE(1).Potential (V)	External(1).External 2 (V)
402.843	0.122711	4.06281
403.843	0.122772	4.02435
404.843	0.122803	4.12262
405.843	0.122864	4.10309
406.843	0.122864	3.98621
407.843	0.122925	4.06281
408.843	0.122955	3.9859
409.843	0.123016	3.98529
410.843	0.123047	4.02405
411.843	0.123108	4.14124
412.843	0.123169	3.96667
413.843	0.123199	3.98651
414.843	0.12323	4.14154
415.843	0.123291	4.02405
416.843	0.123352	4.06342
417.843	0.123383	4.10217
418.843	0.123444	4.00513
419.843	0.123474	4.12292
420.843	0.123505	4.14093
421.843	0.123566	4.04388
422.843	0.123596	4.02435
423.843	0.123657	4.14185
424.843	0.123688	4.00482
425.843	0.123718	4.04388
426.843	0.123779	4.00482
427.843	0.12384	4.06281
428.843	0.123871	4.18091
429.843	0.123932	4.14215
430.843	0.123962	4.04388
431.843	0.124023	4.06311
432.843	0.124084	4.04419
433.843	0.124115	4.08264
434.843	0.124176	4.02405
435.843	0.124237	4.02466
436.843	0.124268	4.02435
437.843	0.124329	4.08264
438.843	0.124359	3.92639
439.843	0.12442	4.00482
440.843	0.124481	4.20013
441.843	0.124512	4.04358
442.843	0.124573	4.12231
443.843	0.124634	4.14185
444.843	0.124664	4.04388
445.843	0.124725	4.10248
446.843	0.124756	4.08264
447.843	0.124817	4.00421
448.843	0.124847	4.06372
449.843	0.124878	4.06281
450.843	0.124908	3.94623
451.843	0.124969	4.02466
452.843	0.125031	4.08264
453.843	0.125061	4.06342
454.843	0.125122	3.96637
455.843	0.125122	4.04327
456.843	0.125183	4.04388
457.843	0.125214	3.98529
458.843	0.125275	4.10309
459.843	0.125305	3.98499
460.843	0.125366	4.08295
461.843	0.125397	4.08234
462.843	0.125458	4.04388
463.843	0.125488	4.10248
464.843	0.125549	4.10309
465.843	0.12558	3.96576
466.843	0.125641	4.06311
467.843	0.125671	4.02435
468.843	0.125702	3.96576
469.843	0.125763	4.12231
470.843	0.125824	4.06311
471.843	0.125854	4.04358
472.843	0.125916	4.18091
473.843	0.125946	4.08295
474.843	0.125977	4.08325
475.843	0.126007	4.02435
476.843	0.126068	4.00482
477.843	0.126129	4.08264
478.843	0.12616	4.10278
479.843	0.12619	4.04388
480.843	0.126251	3.90656
481.843	0.126282	4.08325
482.843	0.126343	4.08325
483.843	0.126373	3.98529
484.843	0.126404	4.02405
485.843	0.126465	4.04358
486.843	0.126495	4.08295
487.843	0.126556	4.06311
488.843	0.126587	4.0625
489.843	0.126648	4.1806
490.843	0.126678	4.06311
491.843	0.12674	3.98621
492.843	0.12677	4.12201
493.843	0.126831	4.12262
494.843	0.126892	4.16138
495.843	0.126923	4.02435
496.843	0.126953	3.98468
497.843	0.127014	4.06311
498.843	0.127075	4.10339
499.843	0.127106	4.04388
500.843	0.127136	3.9856
501.843	0.127197	4.08234
502.843	0.127228	4.08264
503.843	0.127289	4.06281
504.843	0.12735	4.02405
505.843	0.12735	4.10309
506.843	0.127441	4.10309
507.843	0.127472	4.02435
508.843	0.127502	4.02496
509.843	0.127533	4.08264
510.843	0.127594	3.98529
511.843	0.127655	3.94592
512.843	0.127686	4.12262
513.843	0.127716	4.04388
514.843	0.127777	4.1806
515.843	0.127808	4.1806
516.843	0.127838	4.12231
517.843	0.127899	3.98499
518.843	0.12796	4.06311
519.843	0.127991	4.06311
520.843	0.128052	4.06342
521.843	0.128082	4.08295