File: Edgar/20240515/20240515/EC_measurements/Sample_20240502_B/CV/data/OCP_0
Time (s)	WE(1).Potential (V)	External(1).External 2 (V)
2.38175	1.54999	4.33685
4.38175	1.56403	4.23981
6.38175	1.57471	4.31732
8.38175	1.59088	4.33624
10.3817	1.60461	4.39423
12.3817	1.60156	4.31702
14.3817	1.59821	4.1806
16.3817	1.59332	4.25964
18.3817	1.604	4.39423
20.3817	1.60461	4.2981
22.3817	1.60339	4.29749
24.3817	1.61041	4.25934
26.3817	1.61133	4.37469
28.3817	1.14777	4.35577
30.3817	0.90271	4.41406
32.3817	1.01501	4.2981
34.3817	1.12793	4.41437
36.3817	1.22284	4.39423
38.3817	1.28571	4.375
40.3817	1.32996	4.31671
42.3817	1.36993	4.25903
44.3817	1.39771	4.2395
46.3817	1.41846	4.31732
48.3817	1.4267	4.27795
50.3817	1.43677	4.29749
52.3817	1.43829	4.31702
54.3817	1.44073	4.35577
56.3817	1.42426	4.29749
58.3817	1.41815	4.25842
60.3817	1.41876	4.43329
62.3817	1.41571	4.27887
64.3817	1.41083	4.18091
66.3817	2.09015	4.25873
68.3817	1.6626	0.407776
70.3817	1.37756	0.349548
72.3817	1.17676	0.349457
74.3817	0.92865	0.30957
76.3817	0.831909	4.39423
78.3817	0.976257	4.35516
80.3817	1.1145	4.33563
82.3817	1.21155	4.23981
84.3817	1.27563	4.29749
86.3817	1.32965	4.1214
88.3817	1.35193	4.12231
90.3817	0.917358	4.31641
92.3817	1.4682	4.27826
94.3817	1.47491	4.27856
96.3817	1.49811	4.33594
98.3817	1.81915	4.27795
100.382	1.24908	4.29779
102.382	1.6452	4.25903
104.382	2.27722	4.25934
106.382	1.3678	4.31671
108.382	1.51733	4.31732
110.382	2.33856	4.21936
112.382	1.12274	4.00482
114.382	1.66351	4.25903
116.382	2.46613	4.21967
118.382	3.40424	4.10187
120.382	0.794678	4.1806
122.382	0.799561	4.06342
124.382	2.18048	3.78998
126.382	8.13843	3.98407
128.382	2.16003	3.82843
130.382	10	3.84583
132.382	6.72791	4.06189
134.382	4.76013	4.04327
136.382	3.78693	3.88672
138.382	3.1897	4.00391
140.382	2.7829	4.02405
142.382	2.49817	3.98499
144.382	2.29431	3.94562
146.382	2.1463	3.92639
148.382	2.0285	3.84857
150.382	1.9278	4.02435
152.382	1.83777	3.90717
154.382	1.77551	3.86749
156.382	1.72607	3.88702
158.382	1.68884	4.02405
160.382	1.6507	4.08325
162.382	1.6275	4.02466
164.382	1.61041	3.94623
166.382	1.59332	3.80951
168.382	1.58112	3.86749
170.382	1.56708	4.00482
172.382	1.57623	3.96606
174.382	1.5921	3.84827
176.382	1.63452	3.94623
178.382	1.63849	3.8681
180.382	1.61652	3.88733
182.382	1.651	3.88794
184.382	1.67023	3.84827
186.382	1.63086	3.78998
188.382	1.6333	3.96545
190.382	1.21887	3.92639
192.382	1.92017	3.98499
194.382	-2.39044	4.04449
196.382	-0.23584	3.96637
198.382	-0.136566	4.00452
200.382	0.534363	3.96515
202.382	4.01825	3.90625
204.382	2.76733	3.90686
206.382	2.3761	3.90686
208.382	1.34491	3.90686
210.382	1.54388	3.92639
212.382	1.5451	4.04327
214.382	1.56403	4.0625
216.382	2.13043	4.02435
218.382	-2.23846	4.06403
220.382	-1.68396	4.14185
222.382	-0.47699	3.88763
224.382	1.34033	3.94562
226.382	-0.12677	3.98529
228.382	6.30829	3.92517
230.382	2.8949	3.92609
232.382	2.43622	3.96545
234.382	2.08893	3.94592
236.382	1.90155	3.94623
238.382	1.76727	3.9267
240.382	1.67847	3.9267
242.382	1.61469	3.94592
244.382	1.55975	3.90656
246.382	1.53534	3.84857
248.382	1.49261	3.94623
250.382	1.51917	3.9267
252.382	1.45782	4.06311
254.382	1.31744	3.82904
256.382	2.99652	4.00421
258.382	1.65894	4.02405
260.382	-2.97729	4.0448
262.382	-0.558777	4.04388
264.382	0.289917	4.27826
266.382	0.500183	4.2395
268.382	0.603027	4.12231
270.382	0.514832	4.12231
272.382	1.10077	4.14093
274.382	5.42786	4.10126
276.382	3.86871	4.12109
278.382	2.85248	4.06311
280.382	1.89087	0.586853
282.382	0.117096	4.12201
284.382	0.1171875	4.06311
286.382	0.117249	4.1806
288.382	0.117371	4.10248
290.382	0.117462	3.96637
292.382	0.117554	3.98529
294.382	0.117645	4.00482
296.382	0.117737	4.08325
298.382	0.117859	4.00421
300.382	0.11792	4.00452
302.382	0.118042	4.02405
304.382	0.118134	4.16107
306.382	0.118225	4.12231
308.382	0.118317	4.12231
310.382	0.118408	3.98499
312.382	0.1185	4.02374
314.382	0.118622	4.04358
316.382	0.118713	4.20013
318.382	0.118835	4.16107
320.382	0.118896	4.08264
322.382	0.118988	4.02405
324.382	0.11908	0.470581
326.382	0.119202	4.04388
328.382	0.119293	4.16107
330.382	0.119385	4.02405
332.382	0.119446	4.10278
334.382	0.119537	4.00421
336.382	0.119629	3.96545
338.382	0.11972	4.08264
340.382	0.119812	3.94684
342.382	0.119904	4.00482
344.382	0.119995	4.02466
346.382	0.120117	4.10278
348.382	0.120209	4.04358
350.382	0.12027	4.10248
352.382	0.120392	4.06311
354.382	0.120483	4.04388
356.382	0.120575	4.04388
358.382	0.120697	4.06281
360.382	0.120789	4.06342
362.382	0.12088	4.10278
364.382	0.120972	4.00421
366.382	0.121063	4.02466
368.382	0.121155	4.02405
370.382	0.121246	3.96606
372.382	0.121338	4.21967
374.382	0.121429	4.14154
376.382	0.121521	4.14093
378.382	0.121613	4.06281
380.382	0.121674	4.12231
382.382	0.121765	3.96606
384.382	0.121857	4.14124
386.382	0.121918	4.02496
388.382	0.12204	4.08295
390.382	0.122101	4.00452
392.382	0.122223	3.96545
394.382	0.122314	4.04388
396.382	0.122406	3.98499
398.382	0.122498	4.04327
400.382	0.12262	4.04419
401.382	0.12265	4.1217