File: Edgar/20240607/20240607/electrodeposition_pulsed_potential_20240607_B/data/OCP_1
Time (s)	WE(1).Potential (V)
2.05223	0.47348
3.05223	0.474701
4.05223	0.475861
5.05223	0.47702
6.05223	0.478149
7.05223	0.479218
8.05223	0.480255
9.05223	0.481262
10.0522	0.482239
11.0522	0.483154
12.0522	0.48407
13.0522	0.484985
14.0522	0.48587
15.0522	0.486755
16.0522	0.487579
17.0522	0.488434
18.0522	0.489258
19.0522	0.490112
20.0522	0.490906
21.0522	0.491699
22.0522	0.492493
23.0522	0.493286
24.0522	0.494049
25.0522	0.494781
26.0522	0.495514
27.0522	0.496216
28.0522	0.496857
29.0522	0.497498
30.0522	0.498169
31.0522	0.49881
32.0522	0.499573
33.0522	0.500183
34.0522	0.500793
35.0522	0.501404
36.0522	0.502014
37.0522	0.502625
38.0522	0.503235
39.0522	0.503845
40.0522	0.504456
41.0522	0.504761
42.0522	0.505371
43.0522	0.505981
44.0522	0.506287
45.0522	0.506897
46.0522	0.507507
47.0522	0.5078125
48.0522	0.508423
49.0522	0.509033
50.0522	0.509338
51.0522	0.509949
52.0522	0.510254
53.0522	0.510864
54.0522	0.511169
55.0522	0.51178
56.0522	0.512085
57.0522	0.512695
58.0522	0.513
59.0522	0.513306
60.0522	0.513916
61.0522	0.514221
62.0522	0.514832
63.0522	0.515137
64.0522	0.515442
65.0522	0.516052
66.0522	0.516357
67.0522	0.516663
68.0522	0.517273
69.0522	0.517578
70.0522	0.517883
71.0522	0.518188
72.0522	0.518799
73.0522	0.519104
74.0522	0.519409
75.0522	0.519714
76.0522	0.52002
77.0522	0.520325
78.0522	0.520935
79.0522	0.52124
80.0522	0.521545
81.0522	0.521851
82.0522	0.522156
83.0522	0.522461
84.0522	0.523071
85.0522	0.523376
86.0522	0.523682
87.0522	0.523987
88.0522	0.524292
89.0522	0.524597
90.0522	0.524902
91.0522	0.525208
92.0522	0.525513
93.0522	0.525818
94.0522	0.526123
95.0522	0.526428
96.0522	0.526428
97.0522	0.526733
98.0522	0.527039
99.0522	0.527344
100.052	0.527649
101.052	0.527954
102.052	0.528259
103.052	0.528564
104.052	0.52887
105.052	0.529175
106.052	0.529175
107.052	0.52948
108.052	0.529785
109.052	0.53009
110.052	0.530396
111.052	0.530396
112.052	0.530701
113.052	0.531006
114.052	0.531311
115.052	0.531616
116.052	0.531616
117.052	0.531921
118.052	0.532227
119.052	0.532532
120.052	0.532532
121.052	0.532837
122.052	0.533142
123.052	0.533447
124.052	0.533752
125.052	0.533752
126.052	0.534058
127.052	0.534363
128.052	0.534363
129.052	0.534668
130.052	0.534973
131.052	0.535278
132.052	0.535278
133.052	0.535583
134.052	0.535889
135.052	0.535889
136.052	0.536194
137.052	0.536499
138.052	0.536499
139.052	0.536804
140.052	0.537109
141.052	0.537109
142.052	0.537415
143.052	0.53772
144.052	0.53772
145.052	0.538025
146.052	0.538025
147.052	0.53833
148.052	0.538635
149.052	0.538635
150.052	0.53894
151.052	0.53894
152.052	0.539246
153.052	0.539551
154.052	0.539551
155.052	0.539856
156.052	0.539856
157.052	0.540161
158.052	0.540161
159.052	0.540466
160.052	0.540771
161.052	0.540771
162.052	0.540771
163.052	0.541077
164.052	0.541382
165.052	0.541382
166.052	0.540771
167.052	0.541077
168.052	0.541382
169.052	0.541382
170.052	0.541687
171.052	0.541687
172.052	0.541992
173.052	0.541992
174.052	0.542297
175.052	0.542297
176.052	0.542603
177.052	0.542603
178.052	0.542908
179.052	0.542908
180.052	0.543213
181.052	0.543213