File: Edgar/20240607/20240607/electrodeposition_pulsed_potential_20240607_B/data/OCP_3
Time (s)	WE(1).Potential (V)
3017.24	0.027475
3018.24	0.0426056
3019.24	0.0565186
3020.24	0.069397
3021.24	0.0812988
3022.24	0.0923767
3023.24	0.102722
3024.24	0.112366
3025.24	0.121368
3026.24	0.129822
3027.24	0.137726
3028.24	0.145172
3029.24	0.152161
3030.24	0.158752
3031.24	0.164948
3032.24	0.170837
3033.24	0.176422
3034.24	0.181671
3035.24	0.186707
3036.24	0.191467
3037.24	0.196014
3038.24	0.200378
3039.24	0.204529
3040.24	0.208527
3041.24	0.212341
3042.24	0.216034
3043.24	0.219604
3044.24	0.223053
3045.24	0.226379
3046.24	0.229614
3047.24	0.232758
3048.24	0.23584
3049.24	0.238831
3050.24	0.24176
3051.24	0.244629
3052.24	0.247437
3053.24	0.250214
3054.24	0.25293
3055.24	0.255615
3056.24	0.25827
3057.24	0.260895
3058.24	0.263519
3059.24	0.266113
3060.24	0.268707
3061.24	0.271271
3062.24	0.273804
3063.24	0.276367
3064.24	0.278931
3065.24	0.281464
3066.24	0.284027
3067.24	0.286621
3068.24	0.289215
3069.24	0.291809
3070.24	0.294434
3071.24	0.297119
3072.24	0.299805
3073.24	0.302551
3074.24	0.305298
3075.24	0.308105
3076.24	0.310974
3077.24	0.313904
3078.24	0.316864
3079.24	0.319916
3080.24	0.323029
3081.24	0.326202
3082.24	0.329437
3083.24	0.332794
3084.24	0.336182
3085.24	0.339691
3086.24	0.343231
3087.24	0.346863
3088.24	0.350586
3089.24	0.35434
3090.24	0.358185
3091.24	0.362061
3092.24	0.365997
3093.24	0.369965
3094.24	0.373962
3095.24	0.37796
3096.24	0.381989
3097.24	0.386017
3098.24	0.390076
3099.24	0.394135
3100.24	0.398193
3101.24	0.402252
3102.24	0.406311
3103.24	0.41037
3104.24	0.414429
3105.24	0.418457
3106.24	0.422516
3107.24	0.426544
3108.24	0.430542
3109.24	0.43457
3110.24	0.438568
3111.24	0.442566
3112.24	0.446503
3113.24	0.450439
3114.24	0.454315
3115.24	0.45813
3116.24	0.461884
3117.24	0.465576
3118.24	0.469177
3119.24	0.472687
3120.24	0.476105
3121.24	0.479401
3122.24	0.482574
3123.24	0.485626
3124.24	0.488495
3125.24	0.49118
3126.24	0.493713
3127.24	0.496124
3128.24	0.498352
3129.24	0.500793
3130.24	0.502625
3131.24	0.504456
3132.24	0.505981
3133.24	0.507507
3134.24	0.509033
3135.24	0.510254
3136.24	0.511169
3137.24	0.51239
3138.24	0.513306
3139.24	0.514221
3140.24	0.515137
3141.24	0.515747
3142.24	0.516357
3143.24	0.516968
3144.24	0.517578
3145.24	0.518188
3146.24	0.518494
3147.24	0.519104
3148.24	0.519409
3149.24	0.52002
3150.24	0.520325
3151.24	0.52063
3152.24	0.520935
3153.24	0.52124
3154.24	0.521545
3155.24	0.521851
3156.24	0.522156
3157.24	0.522461
3158.24	0.522461
3159.24	0.522766
3160.24	0.523071
3161.24	0.523071
3162.24	0.523376
3163.24	0.523682
3164.24	0.523682
3165.24	0.523987
3166.24	0.524292
3167.24	0.524292
3168.24	0.524597
3169.24	0.524597
3170.24	0.524902
3171.24	0.524902
3172.24	0.525208
3173.24	0.525208
3174.24	0.525513
3175.24	0.525513
3176.24	0.525818
3177.24	0.525818
3178.24	0.525818
3179.24	0.526123
3180.24	0.526123
3181.24	0.526428
3182.24	0.526428
3183.24	0.526428
3184.24	0.526733
3185.24	0.526733
3186.24	0.526733
3187.24	0.527039
3188.24	0.527039
3189.24	0.527039
3190.24	0.527344
3191.24	0.527344
3192.24	0.527344
3193.24	0.527344
3194.24	0.527649
3195.24	0.527649
3196.24	0.527649