File: Edgar/20230821/20230821/electrochromic_setup_test/test_1_0p5_0p5_OCP/OCP_1.txt
Time (s)	WE(1).Potential (V)
11.9059	0.168365
12.9059	0.168396
13.9059	0.168396
14.9059	0.168427
15.9059	0.168457
16.9059	0.168457
17.9059	0.168488
18.9059	0.168518
19.9059	0.168518
20.9059	0.168549
21.9059	0.168579
22.9059	0.168579
23.9059	0.16861
24.9059	0.16864
25.9059	0.168671
26.9059	0.168671
27.9059	0.168701
28.9059	0.168732
29.9059	0.168732
30.9059	0.168762